%OpenBCI Raw EEG Data
%Number of channels = 8
%Sample Rate = 250 Hz
%Board = OpenBCI_GUI$BoardCytonSerial
Sample Index, EXG Channel 0, EXG Channel 1, EXG Channel 2, EXG Channel 3, EXG Channel 4, EXG Channel 5, EXG Channel 6, EXG Channel 7, Accel Channel 0, Accel Channel 1, Accel Channel 2, Other, Other, Other, Other, Other, Other, Other, Analog Channel 0, Analog Channel 1, Analog Channel 2, Timestamp, Other, Timestamp (Formatted)
0.0, 0.0, 0.0, 0.0, 0.0, 0.0, 0.0, 0.0, 0.0, 0.0, 0.0, 0.0, 192.0, 0.0, 0.0, 0.0, 0.0, 0.0, 0.0, 0.0, 0.0, 0.0, 1.652233020946282E9, 0.0, 2022-05-10 20:37:00.946
1.0, 0.0, 0.0, 0.0, 0.0, 5147.6067480572165, 24582.62736590235, 0.0, 0.0, -0.326, -0.838, 0.428, 192.0, 245.0, 208.0, 229.0, 208.0, 13.0, 96.0, 0.0, 0.0, 0.0, 1.652233020962366E9, 0.0, 2022-05-10 20:37:00.962
2.0, 0.0, 0.0, 0.0, 0.0, 5110.279334816853, 24544.67410381724, 0.0, 0.0, -0.326, -0.838, 0.428, 192.0, 0.0, 0.0, 0.0, 0.0, 0.0, 0.0, 0.0, 0.0, 0.0, 1.6522330211287093E9, 0.0, 2022-05-10 20:37:01.128
3.0, 0.0, 0.0, 0.0, 0.0, 5039.156083960067, 24476.16600706172, 0.0, 0.0, -0.326, -0.838, 0.428, 192.0, 0.0, 0.0, 0.0, 0.0, 0.0, 0.0, 0.0, 0.0, 0.0, 1.6522330211287212E9, 0.0, 2022-05-10 20:37:01.128
4.0, 0.0, 0.0, 0.0, 0.0, 4980.5498099982515, 24425.941637270647, 0.0, 0.0, -0.326, -0.838, 0.428, 192.0, 0.0, 0.0, 0.0, 0.0, 0.0, 0.0, 0.0, 0.0, 0.0, 1.6522330211287246E9, 0.0, 2022-05-10 20:37:01.128
5.0, 0.0, 0.0, 0.0, 0.0, 4952.051335817735, 24396.996128201026, 0.0, 0.0, -0.326, -0.838, 0.428, 192.0, 0.0, 0.0, 0.0, 0.0, 0.0, 0.0, 0.0, 0.0, 0.0, 1.6522330211287284E9, 0.0, 2022-05-10 20:37:01.128
6.0, 0.0, 0.0, 0.0, 0.0, 4925.005725026814, 24363.35675279579, 0.0, 0.0, -0.326, -0.838, 0.428, 192.0, 0.0, 0.0, 0.0, 0.0, 0.0, 0.0, 0.0, 0.0, 0.0, 1.6522330211287315E9, 0.0, 2022-05-10 20:37:01.128
7.0, 0.0, 0.0, 0.0, 0.0, 4869.282826099733, 24297.597920608274, 0.0, 0.0, -0.326, -0.838, 0.428, 192.0, 0.0, 0.0, 0.0, 0.0, 0.0, 0.0, 0.0, 0.0, 0.0, 1.6522330211287346E9, 0.0, 2022-05-10 20:37:01.128
8.0, 0.0, 0.0, 0.0, 0.0, 4803.099310767569, 24236.68941696756, 0.0, 0.0, -0.312, -0.846, 0.422, 192.0, 246.0, 64.0, 229.0, 144.0, 13.0, 48.0, 0.0, 0.0, 0.0, 1.652233021128738E9, 0.0, 2022-05-10 20:37:01.128
9.0, 0.0, 0.0, 0.0, 0.0, 4763.626130059496, 24197.305643237312, 0.0, 0.0, -0.312, -0.846, 0.422, 192.0, 0.0, 0.0, 0.0, 0.0, 0.0, 0.0, 0.0, 0.0, 0.0, 1.6522330211287413E9, 0.0, 2022-05-10 20:37:01.128
10.0, 0.0, 0.0, 0.0, 0.0, 4734.07712388958, 24161.67696257555, 0.0, 0.0, -0.312, -0.846, 0.422, 192.0, 0.0, 0.0, 0.0, 0.0, 0.0, 0.0, 0.0, 0.0, 0.0, 1.6522330211287444E9, 0.0, 2022-05-10 20:37:01.128
11.0, 0.0, 0.0, 0.0, 0.0, 4687.45138495581, 24110.71498521745, 0.0, 0.0, -0.312, -0.846, 0.422, 192.0, 0.0, 0.0, 0.0, 0.0, 0.0, 0.0, 0.0, 0.0, 0.0, 1.6522330211287475E9, 0.0, 2022-05-10 20:37:01.128
12.0, 0.0, 0.0, 0.0, 0.0, 4616.663410265853, 24046.09609199716, 0.0, 0.0, -0.312, -0.846, 0.422, 192.0, 0.0, 0.0, 0.0, 0.0, 0.0, 0.0, 0.0, 0.0, 0.0, 1.6522330211287506E9, 0.0, 2022-05-10 20:37:01.128
13.0, 0.0, 0.0, 0.0, 0.0, 4574.910351623339, 24007.718146767398, 0.0, 0.0, -0.312, -0.846, 0.422, 192.0, 0.0, 0.0, 0.0, 0.0, 0.0, 0.0, 0.0, 0.0, 0.0, 1.652233021128754E9, 0.0, 2022-05-10 20:37:01.128
14.0, 0.0, 0.0, 0.0, 0.0, 4546.255415231635, 23975.241062073837, 0.0, 0.0, -0.312, -0.846, 0.422, 192.0, 0.0, 0.0, 0.0, 0.0, 0.0, 0.0, 0.0, 0.0, 0.0, 1.6522330211287568E9, 0.0, 2022-05-10 20:37:01.128
15.0, 0.0, 0.0, 0.0, 0.0, 4507.899821746329, 23923.474421915344, 0.0, 0.0, -0.312, -0.846, 0.422, 192.0, 0.0, 0.0, 0.0, 0.0, 0.0, 0.0, 0.0, 0.0, 0.0, 1.65223302112876E9, 0.0, 2022-05-10 20:37:01.128
16.0, 0.0, 0.0, 0.0, 0.0, 4433.759085388075, 23852.127653614003, 0.0, 0.0, -0.312, -0.846, 0.422, 192.0, 0.0, 0.0, 0.0, 0.0, 0.0, 0.0, 0.0, 0.0, 0.0, 1.6522330211287632E9, 0.0, 2022-05-10 20:37:01.128
17.0, 0.0, 0.0, 0.0, 0.0, 4381.701872551665, 23809.301711237636, 0.0, 0.0, -0.312, -0.846, 0.422, 192.0, 0.0, 0.0, 0.0, 0.0, 0.0, 0.0, 0.0, 0.0, 0.0, 1.6522330211287663E9, 0.0, 2022-05-10 20:37:01.128
18.0, 0.0, 0.0, 0.0, 0.0, 4342.832188943886, 23772.220167186282, 0.0, 0.0, -0.312, -0.84, 0.41000000000000003, 192.0, 246.0, 64.0, 229.0, 192.0, 12.0, 208.0, 0.0, 0.0, 0.0, 1.65223302112877E9, 0.0, 2022-05-10 20:37:01.128
19.0, 0.0, 0.0, 0.0, 0.0, 4295.982932565562, 23721.302893317094, 0.0, 0.0, -0.312, -0.84, 0.41000000000000003, 192.0, 0.0, 0.0, 0.0, 0.0, 0.0, 0.0, 0.0, 0.0, 0.0, 1.6522330211287732E9, 0.0, 2022-05-10 20:37:01.128
20.0, 0.0, 0.0, 0.0, 0.0, 4243.322222628859, 23666.854043823965, 0.0, 0.0, -0.312, -0.84, 0.41000000000000003, 192.0, 0.0, 0.0, 0.0, 0.0, 0.0, 0.0, 0.0, 0.0, 0.0, 1.6522330211287763E9, 0.0, 2022-05-10 20:37:01.128
21.0, 0.0, 0.0, 0.0, 0.0, 4196.741187183999, 23616.29439786606, 0.0, 0.0, -0.312, -0.84, 0.41000000000000003, 192.0, 0.0, 0.0, 0.0, 0.0, 0.0, 0.0, 0.0, 0.0, 0.0, 1.6522330211287796E9, 0.0, 2022-05-10 20:37:01.128
22.0, 0.0, 0.0, 0.0, 0.0, 4154.049355274362, 23578.832874158965, 0.0, 0.0, -0.312, -0.84, 0.41000000000000003, 192.0, 0.0, 0.0, 0.0, 0.0, 0.0, 0.0, 0.0, 0.0, 0.0, 1.6522330211287904E9, 0.0, 2022-05-10 20:37:01.128
23.0, 0.0, 0.0, 0.0, 0.0, 4115.604354811234, 23542.153661507808, 0.0, 0.0, -0.312, -0.84, 0.41000000000000003, 192.0, 0.0, 0.0, 0.0, 0.0, 0.0, 0.0, 0.0, 0.0, 0.0, 1.6522330211287932E9, 0.0, 2022-05-10 20:37:01.128
24.0, 0.0, 0.0, 0.0, 0.0, 4051.343089502226, 23468.281146083016, 0.0, 0.0, -0.312, -0.84, 0.41000000000000003, 192.0, 0.0, 0.0, 0.0, 0.0, 0.0, 0.0, 0.0, 0.0, 0.0, 1.6522330211287966E9, 0.0, 2022-05-10 20:37:01.128
25.0, 0.0, 0.0, 0.0, 0.0, 4007.064283736263, 23429.277352008507, 0.0, 0.0, -0.312, -0.84, 0.41000000000000003, 192.0, 0.0, 0.0, 0.0, 0.0, 0.0, 0.0, 0.0, 0.0, 0.0, 1.6522330211288E9, 0.0, 2022-05-10 20:37:01.128
26.0, 0.0, 0.0, 0.0, 0.0, 3958.0916116346853, 23390.809999800924, 0.0, 0.0, -0.312, -0.84, 0.41000000000000003, 192.0, 0.0, 0.0, 0.0, 0.0, 0.0, 0.0, 0.0, 0.0, 0.0, 1.6522330211288033E9, 0.0, 2022-05-10 20:37:01.128
27.0, 0.0, 0.0, 0.0, 0.0, 3922.1723582950067, 23348.252278358017, 0.0, 0.0, -0.318, -0.842, 0.394, 192.0, 246.0, 16.0, 229.0, 176.0, 12.0, 80.0, 0.0, 0.0, 0.0, 1.652233021128806E9, 0.0, 2022-05-10 20:37:01.128
28.0, 0.0, 0.0, 0.0, 0.0, 3872.3056164152167, 23284.7956758494, 0.0, 0.0, -0.318, -0.842, 0.394, 192.0, 0.0, 0.0, 0.0, 0.0, 0.0, 0.0, 0.0, 0.0, 0.0, 1.6522330211288095E9, 0.0, 2022-05-10 20:37:01.128
29.0, 0.0, 0.0, 0.0, 0.0, 3817.208566332885, 23222.702529752558, 0.0, 0.0, -0.318, -0.842, 0.394, 192.0, 0.0, 0.0, 0.0, 0.0, 0.0, 0.0, 0.0, 0.0, 0.0, 1.6522330211288126E9, 0.0, 2022-05-10 20:37:01.128
30.0, 0.0, 0.0, 0.0, 0.0, 3785.6702549064466, 23187.45382874654, 0.0, 0.0, -0.318, -0.842, 0.394, 192.0, 0.0, 0.0, 0.0, 0.0, 0.0, 0.0, 0.0, 0.0, 0.0, 1.6522330211288157E9, 0.0, 2022-05-10 20:37:01.128
31.0, 0.0, 0.0, 0.0, 0.0, 3744.878321275511, 23160.00588655542, 0.0, 0.0, -0.318, -0.842, 0.394, 192.0, 0.0, 0.0, 0.0, 0.0, 0.0, 0.0, 0.0, 0.0, 0.0, 1.6522330211288188E9, 0.0, 2022-05-10 20:37:01.128
32.0, 0.0, 0.0, 0.0, 0.0, 3691.859983427523, 23103.299510872308, 0.0, 0.0, -0.318, -0.842, 0.394, 192.0, 0.0, 0.0, 0.0, 0.0, 0.0, 0.0, 0.0, 0.0, 0.0, 1.652233021128822E9, 0.0, 2022-05-10 20:37:01.128
33.0, 0.0, 0.0, 0.0, 0.0, 3632.4490466653165, 23039.79820487478, 0.0, 0.0, -0.318, -0.842, 0.394, 192.0, 0.0, 0.0, 0.0, 0.0, 0.0, 0.0, 0.0, 0.0, 0.0, 1.6522330211288252E9, 0.0, 2022-05-10 20:37:01.128
34.0, 0.0, 0.0, 0.0, 0.0, 3602.3859503729286, 23016.17241098552, 0.0, 0.0, -0.318, -0.842, 0.394, 192.0, 0.0, 0.0, 0.0, 0.0, 0.0, 0.0, 0.0, 0.0, 0.0, 1.6522330211288283E9, 0.0, 2022-05-10 20:37:01.128
35.0, 0.0, 0.0, 0.0, 0.0, 3554.1732375828315, 22967.155035395033, 0.0, 0.0, -0.318, -0.842, 0.394, 192.0, 0.0, 0.0, 0.0, 0.0, 0.0, 0.0, 0.0, 0.0, 0.0, 1.6522330211288311E9, 0.0, 2022-05-10 20:37:01.128
36.0, 0.0, 0.0, 0.0, 0.0, 3503.7253503472034, 22921.57982845066, 0.0, 0.0, -0.318, -0.842, 0.394, 192.0, 0.0, 0.0, 0.0, 0.0, 0.0, 0.0, 0.0, 0.0, 0.0, 1.6522330211288345E9, 0.0, 2022-05-10 20:37:01.128
37.0, 0.0, 0.0, 0.0, 0.0, 3452.2045793777206, 22862.727685299837, 0.0, 0.0, -0.336, -0.866, 0.384, 192.0, 245.0, 128.0, 228.0, 240.0, 12.0, 0.0, 0.0, 0.0, 0.0, 1.6522330211288376E9, 0.0, 2022-05-10 20:37:01.128
38.0, 0.0, 0.0, 0.0, 0.0, 3418.67696269476, 22824.70736798136, 0.0, 0.0, -0.336, -0.866, 0.384, 192.0, 0.0, 0.0, 0.0, 0.0, 0.0, 0.0, 0.0, 0.0, 0.0, 1.6522330211288412E9, 0.0, 2022-05-10 20:37:01.128
39.0, 0.0, 0.0, 0.0, 0.0, 3381.0142732875674, 22783.669565161417, 0.0, 0.0, -0.336, -0.866, 0.384, 192.0, 0.0, 0.0, 0.0, 0.0, 0.0, 0.0, 0.0, 0.0, 0.0, 1.6522330211288443E9, 0.0, 2022-05-10 20:37:01.128
40.0, 0.0, 0.0, 0.0, 0.0, 3345.005612970068, 22756.623954370494, 0.0, 0.0, -0.336, -0.866, 0.384, 192.0, 0.0, 0.0, 0.0, 0.0, 0.0, 0.0, 0.0, 0.0, 0.0, 1.6522330215956397E9, 0.0, 2022-05-10 20:37:01.595
41.0, 0.0, 0.0, 0.0, 0.0, 3280.2526092830435, 22689.97105240477, 0.0, 0.0, -0.336, -0.866, 0.384, 192.0, 0.0, 0.0, 0.0, 0.0, 0.0, 0.0, 0.0, 0.0, 0.0, 1.6522330215957892E9, 0.0, 2022-05-10 20:37:01.595
42.0, 0.0, 0.0, 0.0, 0.0, 3235.817341305893, 22641.020732047647, 0.0, 0.0, -0.336, -0.866, 0.384, 192.0, 0.0, 0.0, 0.0, 0.0, 0.0, 0.0, 0.0, 0.0, 0.0, 1.6522330215957928E9, 0.0, 2022-05-10 20:37:01.595
43.0, 0.0, 0.0, 0.0, 0.0, 3201.06037867789, 22597.0324989596, 0.0, 0.0, -0.336, -0.866, 0.384, 192.0, 0.0, 0.0, 0.0, 0.0, 0.0, 0.0, 0.0, 0.0, 0.0, 1.652233021595804E9, 0.0, 2022-05-10 20:37:01.595
44.0, 0.0, 0.0, 0.0, 0.0, 3160.1790380691336, 22546.718722190708, 0.0, 0.0, -0.336, -0.866, 0.384, 192.0, 0.0, 0.0, 0.0, 0.0, 0.0, 0.0, 0.0, 0.0, 0.0, 1.6522330215958073E9, 0.0, 2022-05-10 20:37:01.595
45.0, 0.0, 0.0, 0.0, 0.0, 3088.072310456313, 22479.954061502704, 0.0, 0.0, -0.336, -0.866, 0.384, 192.0, 0.0, 0.0, 0.0, 0.0, 0.0, 0.0, 0.0, 0.0, 0.0, 1.6522330215958102E9, 0.0, 2022-05-10 20:37:01.595
46.0, 0.0, 0.0, 0.0, 0.0, 3040.2619290664115, 22436.815194703962, 0.0, 0.0, -0.336, -0.866, 0.384, 192.0, 0.0, 0.0, 0.0, 0.0, 0.0, 0.0, 0.0, 0.0, 0.0, 1.6522330215958135E9, 0.0, 2022-05-10 20:37:01.595
47.0, 0.0, 0.0, 0.0, 0.0, 3014.155091542613, 22413.27880779252, 0.0, 0.0, -0.338, -0.9, 0.37, 192.0, 245.0, 112.0, 227.0, 224.0, 11.0, 144.0, 0.0, 0.0, 0.0, 1.6522330215958169E9, 0.0, 2022-05-10 20:37:01.595
48.0, 0.0, 0.0, 0.0, 0.0, 2969.898637521105, 22378.47714167561, 0.0, 0.0, -0.338, -0.9, 0.37, 192.0, 0.0, 0.0, 0.0, 0.0, 0.0, 0.0, 0.0, 0.0, 0.0, 1.6522330215958202E9, 0.0, 2022-05-10 20:37:01.595
49.0, 0.0, 0.0, 0.0, 0.0, 2905.704427445463, 22315.199353122636, 0.0, 0.0, -0.338, -0.9, 0.37, 192.0, 0.0, 0.0, 0.0, 0.0, 0.0, 0.0, 0.0, 0.0, 0.0, 1.6522330215958233E9, 0.0, 2022-05-10 20:37:01.595
50.0, 0.0, 0.0, 0.0, 0.0, 2864.979549047893, 22264.595003675822, 0.0, 0.0, -0.338, -0.9, 0.37, 192.0, 0.0, 0.0, 0.0, 0.0, 0.0, 0.0, 0.0, 0.0, 0.0, 1.6522330215958266E9, 0.0, 2022-05-10 20:37:01.595
51.0, 0.0, 0.0, 0.0, 0.0, 2831.6083945761197, 22224.741843312007, 0.0, 0.0, -0.338, -0.9, 0.37, 192.0, 0.0, 0.0, 0.0, 0.0, 0.0, 0.0, 0.0, 0.0, 0.0, 1.65223302159583E9, 0.0, 2022-05-10 20:37:01.595
52.0, 0.0, 0.0, 0.0, 0.0, 2776.9360276384386, 22180.798313712876, 0.0, 0.0, -0.338, -0.9, 0.37, 192.0, 0.0, 0.0, 0.0, 0.0, 0.0, 0.0, 0.0, 0.0, 0.0, 1.6522330215958333E9, 0.0, 2022-05-10 20:37:01.595
53.0, 0.0, 0.0, 0.0, 0.0, 2725.2364427133134, 22145.996647595963, 0.0, 0.0, -0.338, -0.9, 0.37, 192.0, 0.0, 0.0, 0.0, 0.0, 0.0, 0.0, 0.0, 0.0, 0.0, 1.652233021595836E9, 0.0, 2022-05-10 20:37:01.595
54.0, 0.0, 0.0, 0.0, 0.0, 2689.540706818188, 22111.15027799014, 0.0, 0.0, -0.338, -0.9, 0.37, 192.0, 0.0, 0.0, 0.0, 0.0, 0.0, 0.0, 0.0, 0.0, 0.0, 1.6522330215958393E9, 0.0, 2022-05-10 20:37:01.595
55.0, 0.0, 0.0, 0.0, 0.0, 2653.4426395228675, 22070.000716447918, 0.0, 0.0, -0.338, -0.9, 0.37, 192.0, 0.0, 0.0, 0.0, 0.0, 0.0, 0.0, 0.0, 0.0, 0.0, 1.6522330215958424E9, 0.0, 2022-05-10 20:37:01.595
56.0, 0.0, 0.0, 0.0, 0.0, 2616.808130360619, 22029.029968861338, 0.0, 0.0, -0.338, -0.9, 0.37, 192.0, 0.0, 0.0, 0.0, 0.0, 0.0, 0.0, 0.0, 0.0, 0.0, 1.6522330215958457E9, 0.0, 2022-05-10 20:37:01.595
57.0, 0.0, 0.0, 0.0, 0.0, 2571.523496094167, 21971.228357699914, 0.0, 0.0, -0.334, -0.894, 0.354, 192.0, 245.0, 144.0, 228.0, 16.0, 11.0, 16.0, 0.0, 0.0, 0.0, 1.6522330215958486E9, 0.0, 2022-05-10 20:37:01.595
58.0, 0.0, 0.0, 0.0, 0.0, 2525.948289149796, 21926.5248687893, 0.0, 0.0, -0.334, -0.894, 0.354, 192.0, 0.0, 0.0, 0.0, 0.0, 0.0, 0.0, 0.0, 0.0, 0.0, 1.652233021595852E9, 0.0, 2022-05-10 20:37:01.595
59.0, 0.0, 0.0, 0.0, 0.0, 2490.230201510215, 21902.116763844107, 0.0, 0.0, -0.334, -0.894, 0.354, 192.0, 0.0, 0.0, 0.0, 0.0, 0.0, 0.0, 0.0, 0.0, 0.0, 1.652233021595855E9, 0.0, 2022-05-10 20:37:01.595
60.0, 0.0, 0.0, 0.0, 0.0, 2452.9921952476734, 21862.04008603574, 0.0, 0.0, -0.334, -0.894, 0.354, 192.0, 0.0, 0.0, 0.0, 0.0, 0.0, 0.0, 0.0, 0.0, 0.0, 1.652233021595858E9, 0.0, 2022-05-10 20:37:01.595
61.0, 0.0, 0.0, 0.0, 0.0, 2414.3460290844478, 21818.40948085898, 0.0, 0.0, -0.334, -0.894, 0.354, 192.0, 0.0, 0.0, 0.0, 0.0, 0.0, 0.0, 0.0, 0.0, 0.0, 1.6522330215958612E9, 0.0, 2022-05-10 20:37:01.595
62.0, 0.0, 0.0, 0.0, 0.0, 2350.0624120309844, 21750.46017771485, 0.0, 0.0, -0.334, -0.894, 0.354, 192.0, 0.0, 0.0, 0.0, 0.0, 0.0, 0.0, 0.0, 0.0, 0.0, 1.6522330215958643E9, 0.0, 2022-05-10 20:37:01.595
63.0, 0.0, 0.0, 0.0, 0.0, 2309.6951615447, 21711.679901084888, 0.0, 0.0, -0.334, -0.894, 0.354, 192.0, 0.0, 0.0, 0.0, 0.0, 0.0, 0.0, 0.0, 0.0, 0.0, 1.6522330215958676E9, 0.0, 2022-05-10 20:37:01.595
64.0, 0.0, 0.0, 0.0, 0.0, 2277.732166973611, 21682.77909550418, 0.0, 0.0, -0.334, -0.894, 0.354, 192.0, 0.0, 0.0, 0.0, 0.0, 0.0, 0.0, 0.0, 0.0, 0.0, 1.652233021595872E9, 0.0, 2022-05-10 20:37:01.595
65.0, 0.0, 0.0, 0.0, 0.0, 2237.208454276139, 21641.115443839484, 0.0, 0.0, -0.334, -0.894, 0.354, 192.0, 0.0, 0.0, 0.0, 0.0, 0.0, 0.0, 0.0, 0.0, 0.0, 1.652233021595875E9, 0.0, 2022-05-10 20:37:01.595
66.0, 0.0, 0.0, 0.0, 0.0, 2176.0764331908745, 21575.155445951874, 0.0, 0.0, -0.334, -0.894, 0.354, 192.0, 0.0, 0.0, 0.0, 0.0, 0.0, 0.0, 0.0, 0.0, 0.0, 1.6522330215958784E9, 0.0, 2022-05-10 20:37:01.595
67.0, 0.0, 0.0, 0.0, 0.0, 2132.311717547383, 21533.02240765362, 0.0, 0.0, -0.328, -0.884, 0.34, 192.0, 245.0, 192.0, 228.0, 96.0, 10.0, 160.0, 0.0, 0.0, 0.0, 1.6522330215958817E9, 0.0, 2022-05-10 20:37:01.595
68.0, 0.0, 0.0, 0.0, 0.0, 2092.1456327611963, 21498.19838979225, 0.0, 0.0, -0.328, -0.884, 0.34, 192.0, 0.0, 0.0, 0.0, 0.0, 0.0, 0.0, 0.0, 0.0, 0.0, 1.6522330215958846E9, 0.0, 2022-05-10 20:37:01.595
69.0, 0.0, 0.0, 0.0, 0.0, 2054.3711846317274, 21461.407418418818, 0.0, 0.0, -0.328, -0.884, 0.34, 192.0, 0.0, 0.0, 0.0, 0.0, 0.0, 0.0, 0.0, 0.0, 0.0, 1.6522330215958877E9, 0.0, 2022-05-10 20:37:01.595
70.0, 0.0, 0.0, 0.0, 0.0, 2003.9009456516442, 21411.384214327838, 0.0, 0.0, -0.328, -0.884, 0.34, 192.0, 0.0, 0.0, 0.0, 0.0, 0.0, 0.0, 0.0, 0.0, 0.0, 1.6522330215958908E9, 0.0, 2022-05-10 20:37:01.595
71.0, 0.0, 0.0, 0.0, 0.0, 1953.9671485384881, 21366.65837367277, 0.0, 0.0, -0.328, -0.884, 0.34, 192.0, 0.0, 0.0, 0.0, 0.0, 0.0, 0.0, 0.0, 0.0, 0.0, 1.6522330215958948E9, 0.0, 2022-05-10 20:37:01.595
72.0, 0.0, 0.0, 0.0, 0.0, 1924.6640115575806, 21330.69441684418, 0.0, 0.0, -0.328, -0.884, 0.34, 192.0, 0.0, 0.0, 0.0, 0.0, 0.0, 0.0, 0.0, 0.0, 0.0, 1.652233021595898E9, 0.0, 2022-05-10 20:37:01.595
73.0, 0.0, 0.0, 0.0, 0.0, 1886.4425285390055, 21292.89761697026, 0.0, 0.0, -0.328, -0.884, 0.34, 192.0, 0.0, 0.0, 0.0, 0.0, 0.0, 0.0, 0.0, 0.0, 0.0, 1.652233021595901E9, 0.0, 2022-05-10 20:37:01.595
74.0, 0.0, 0.0, 0.0, 0.0, 1830.4961121673718, 21235.72185465358, 0.0, 0.0, -0.328, -0.884, 0.34, 192.0, 0.0, 0.0, 0.0, 0.0, 0.0, 0.0, 0.0, 0.0, 0.0, 1.6522330215959053E9, 0.0, 2022-05-10 20:37:01.595
75.0, 0.0, 0.0, 0.0, 0.0, 1781.746957510347, 21196.71806057907, 0.0, 0.0, -0.328, -0.884, 0.34, 192.0, 0.0, 0.0, 0.0, 0.0, 0.0, 0.0, 0.0, 0.0, 0.0, 1.6522330215959082E9, 0.0, 2022-05-10 20:37:01.595
76.0, 0.0, 0.0, 0.0, 0.0, 1741.692631446437, 21160.66469677266, 0.0, 0.0, -0.328, -0.884, 0.34, 192.0, 0.0, 0.0, 0.0, 0.0, 0.0, 0.0, 0.0, 0.0, 0.0, 1.6522330215959115E9, 0.0, 2022-05-10 20:37:01.595
77.0, 0.0, 0.0, 0.0, 0.0, 1709.2378984973311, 21119.917466630635, 0.0, 0.0, -0.314, -0.906, 0.33, 192.0, 246.0, 48.0, 227.0, 176.0, 10.0, 80.0, 0.0, 0.0, 0.0, 1.6522330215959144E9, 0.0, 2022-05-10 20:37:01.595
78.0, 0.0, 0.0, 0.0, 0.0, 1658.633549050516, 21064.68630608157, 0.0, 0.0, -0.314, -0.906, 0.33, 192.0, 0.0, 0.0, 0.0, 0.0, 0.0, 0.0, 0.0, 0.0, 0.0, 1.6522330215959177E9, 0.0, 2022-05-10 20:37:01.595
79.0, 0.0, 0.0, 0.0, 0.0, 1607.9397926258794, 21009.991587399436, 0.0, 0.0, -0.314, -0.906, 0.33, 192.0, 0.0, 0.0, 0.0, 0.0, 0.0, 0.0, 0.0, 0.0, 0.0, 1.6522330215959208E9, 0.0, 2022-05-10 20:37:01.595
80.0, 0.0, 0.0, 0.0, 0.0, 1574.635693387472, 20985.4046684986, 0.0, 0.0, -0.314, -0.906, 0.33, 192.0, 0.0, 0.0, 0.0, 0.0, 0.0, 0.0, 0.0, 0.0, 0.0, 1.652233021595924E9, 0.0, 2022-05-10 20:37:01.595
81.0, 0.0, 0.0, 0.0, 0.0, 1534.0672772010896, 20949.261897714365, 0.0, 0.0, -0.314, -0.906, 0.33, 192.0, 0.0, 0.0, 0.0, 0.0, 0.0, 0.0, 0.0, 0.0, 0.0, 1.652233021595927E9, 0.0, 2022-05-10 20:37:01.595
82.0, 0.0, 0.0, 0.0, 0.0, 1494.4376342818302, 20903.105545414157, 0.0, 0.0, -0.314, -0.906, 0.33, 192.0, 0.0, 0.0, 0.0, 0.0, 0.0, 0.0, 0.0, 0.0, 0.0, 1.65223302159593E9, 0.0, 2022-05-10 20:37:01.595
83.0, 0.0, 0.0, 0.0, 0.0, 1436.9712992872358, 20851.718884911406, 0.0, 0.0, -0.314, -0.906, 0.33, 192.0, 0.0, 0.0, 0.0, 0.0, 0.0, 0.0, 0.0, 0.0, 0.0, 1.6522330215959368E9, 0.0, 2022-05-10 20:37:01.595
84.0, 0.0, 0.0, 0.0, 0.0, 1403.063702948535, 20816.716053094395, 0.0, 0.0, -0.314, -0.906, 0.33, 192.0, 0.0, 0.0, 0.0, 0.0, 0.0, 0.0, 0.0, 0.0, 0.0, 1.65223302159594E9, 0.0, 2022-05-10 20:37:01.595
85.0, 0.0, 0.0, 0.0, 0.0, 1373.067661889513, 20775.991174696825, 0.0, 0.0, -0.314, -0.906, 0.33, 192.0, 0.0, 0.0, 0.0, 0.0, 0.0, 0.0, 0.0, 0.0, 0.0, 1.6522330215959432E9, 0.0, 2022-05-10 20:37:01.595
86.0, 0.0, 0.0, 0.0, 0.0, 1328.4982834456305, 20728.80664215167, 0.0, 0.0, -0.314, -0.906, 0.33, 192.0, 0.0, 0.0, 0.0, 0.0, 0.0, 0.0, 0.0, 0.0, 0.0, 1.6522330215959475E9, 0.0, 2022-05-10 20:37:01.595
87.0, 0.0, 0.0, 0.0, 0.0, 1268.550904816497, 20679.923377027917, 0.0, 0.0, -0.28600000000000003, -0.894, 0.32, 192.0, 247.0, 16.0, 228.0, 16.0, 10.0, 0.0, 0.0, 0.0, 0.0, 1.6522330215959508E9, 0.0, 2022-05-10 20:37:01.595
88.0, 0.0, 0.0, 0.0, 0.0, 1223.3780292723216, 20630.771890970696, 0.0, 0.0, -0.28600000000000003, -0.894, 0.32, 192.0, 0.0, 0.0, 0.0, 0.0, 0.0, 0.0, 0.0, 0.0, 0.0, 1.6522330215959537E9, 0.0, 2022-05-10 20:37:01.595
89.0, 0.0, 0.0, 0.0, 0.0, 1180.6638456182297, 20594.98674809775, 0.0, 0.0, -0.28600000000000003, -0.894, 0.32, 192.0, 0.0, 0.0, 0.0, 0.0, 0.0, 0.0, 0.0, 0.0, 0.0, 1.652233021595957E9, 0.0, 2022-05-10 20:37:01.595
90.0, 0.0, 0.0, 0.0, 0.0, 1155.205208683635, 20564.07428551606, 0.0, 0.0, -0.28600000000000003, -0.894, 0.32, 192.0, 0.0, 0.0, 0.0, 0.0, 0.0, 0.0, 0.0, 0.0, 0.0, 1.65223302159596E9, 0.0, 2022-05-10 20:37:01.595
91.0, 0.0, 0.0, 0.0, 0.0, 1109.6747052281744, 20504.57394177603, 0.0, 0.0, -0.28600000000000003, -0.894, 0.32, 192.0, 0.0, 0.0, 0.0, 0.0, 0.0, 0.0, 0.0, 0.0, 0.0, 1.6522330215959632E9, 0.0, 2022-05-10 20:37:01.595
92.0, 0.0, 0.0, 0.0, 0.0, 1075.789460633929, 20473.370906516422, 0.0, 0.0, -0.28600000000000003, -0.894, 0.32, 192.0, 0.0, 0.0, 0.0, 0.0, 0.0, 0.0, 0.0, 0.0, 0.0, 1.6522330215959666E9, 0.0, 2022-05-10 20:37:01.595
93.0, 0.0, 0.0, 0.0, 0.0, 1034.4610851360662, 20440.066807278017, 0.0, 0.0, -0.28600000000000003, -0.894, 0.32, 192.0, 0.0, 0.0, 0.0, 0.0, 0.0, 0.0, 0.0, 0.0, 0.0, 1.65223302159597E9, 0.0, 2022-05-10 20:37:01.595
94.0, 0.0, 0.0, 0.0, 0.0, 989.9364101810945, 20397.95612072422, 0.0, 0.0, -0.28600000000000003, -0.894, 0.32, 192.0, 0.0, 0.0, 0.0, 0.0, 0.0, 0.0, 0.0, 0.0, 0.0, 1.6522330215959733E9, 0.0, 2022-05-10 20:37:01.595
95.0, 0.0, 0.0, 0.0, 0.0, 936.8733688441955, 20345.854204398896, 0.0, 0.0, -0.28600000000000003, -0.894, 0.32, 192.0, 0.0, 0.0, 0.0, 0.0, 0.0, 0.0, 0.0, 0.0, 0.0, 1.6522330215959764E9, 0.0, 2022-05-10 20:37:01.595
96.0, 0.0, 0.0, 0.0, 0.0, 890.3817403771568, 20297.328567186425, 0.0, 0.0, -0.28600000000000003, -0.894, 0.32, 192.0, 0.0, 0.0, 0.0, 0.0, 0.0, 0.0, 0.0, 0.0, 0.0, 1.65223302159598E9, 0.0, 2022-05-10 20:37:01.595
97.0, 0.0, 0.0, 0.0, 0.0, 857.412917305579, 20262.795122002975, 0.0, 0.0, -0.27, -0.896, 0.314, 192.0, 247.0, 144.0, 228.0, 0.0, 9.0, 208.0, 0.0, 0.0, 0.0, 1.6522330215959833E9, 0.0, 2022-05-10 20:37:01.595
98.0, 0.0, 0.0, 0.0, 0.0, 848.2487020789031, 20245.29370609447, 0.0, 0.0, -0.27, -0.896, 0.314, 192.0, 0.0, 0.0, 0.0, 0.0, 0.0, 0.0, 0.0, 0.0, 0.0, 1.6522330215959861E9, 0.0, 2022-05-10 20:37:01.595
99.0, 0.0, 0.0, 0.0, 0.0, 836.7152019399646, 20219.05275810394, 0.0, 0.0, -0.27, -0.896, 0.314, 192.0, 0.0, 0.0, 0.0, 0.0, 0.0, 0.0, 0.0, 0.0, 0.0, 1.6522330215959895E9, 0.0, 2022-05-10 20:37:01.595
100.0, 0.0, 0.0, 0.0, 0.0, 772.4092331420462, 20155.104417217306, 0.0, 0.0, -0.27, -0.896, 0.314, 192.0, 0.0, 0.0, 0.0, 0.0, 0.0, 0.0, 0.0, 0.0, 0.0, 1.6522330215959923E9, 0.0, 2022-05-10 20:37:01.595
101.0, 0.0, 0.0, 0.0, 0.0, 692.7699676477871, 20099.426221779137, 0.0, 0.0, -0.27, -0.896, 0.314, 192.0, 0.0, 0.0, 0.0, 0.0, 0.0, 0.0, 0.0, 0.0, 0.0, 1.652233021595996E9, 0.0, 2022-05-10 20:37:01.595
102.0, 0.0, 0.0, 0.0, 0.0, 662.4833539108461, 20061.00357306046, 0.0, 0.0, -0.27, -0.896, 0.314, 192.0, 0.0, 0.0, 0.0, 0.0, 0.0, 0.0, 0.0, 0.0, 0.0, 1.6522330215959992E9, 0.0, 2022-05-10 20:37:01.595
103.0, 0.0, 0.0, 0.0, 0.0, 615.0306004322291, 20013.5731713263, 0.0, 0.0, -0.27, -0.896, 0.314, 192.0, 0.0, 0.0, 0.0, 0.0, 0.0, 0.0, 0.0, 0.0, 0.0, 1.6522330215960023E9, 0.0, 2022-05-10 20:37:01.596
104.0, 0.0, 0.0, 0.0, 0.0, 544.9802333092968, 19944.640391426135, 0.0, 0.0, -0.27, -0.896, 0.314, 192.0, 0.0, 0.0, 0.0, 0.0, 0.0, 0.0, 0.0, 0.0, 0.0, 1.6522330215960054E9, 0.0, 2022-05-10 20:37:01.596
105.0, 0.0, 0.0, 0.0, 0.0, 490.5760873050794, 19911.246885209905, 0.0, 0.0, -0.27, -0.896, 0.314, 192.0, 0.0, 0.0, 0.0, 0.0, 0.0, 0.0, 0.0, 0.0, 0.0, 1.6522330215960085E9, 0.0, 2022-05-10 20:37:01.596
106.0, 0.0, 0.0, 0.0, 0.0, 466.1009271265182, 19897.70172806999, 0.0, 0.0, -0.264, -0.896, 0.304, 192.0, 247.0, 192.0, 228.0, 0.0, 9.0, 128.0, 0.0, 0.0, 0.0, 1.6522330215960124E9, 0.0, 2022-05-10 20:37:01.596
107.0, 0.0, 0.0, 0.0, 0.0, 441.91633962587593, 19888.001070976385, 0.0, 0.0, -0.264, -0.896, 0.304, 192.0, 0.0, 0.0, 0.0, 0.0, 0.0, 0.0, 0.0, 0.0, 0.0, 1.6522330215960166E9, 0.0, 2022-05-10 20:37:01.596
108.0, 0.0, 0.0, 0.0, 0.0, 368.2226381567286, 19805.076099047197, 0.0, 0.0, -0.264, -0.896, 0.304, 192.0, 0.0, 0.0, 0.0, 0.0, 0.0, 0.0, 0.0, 0.0, 0.0, 1.6522330215960197E9, 0.0, 2022-05-10 20:37:01.596
109.0, 0.0, 0.0, 0.0, 0.0, 319.7193526887122, 19755.544633334237, 0.0, 0.0, -0.264, -0.896, 0.304, 192.0, 0.0, 0.0, 0.0, 0.0, 0.0, 0.0, 0.0, 0.0, 0.0, 1.6522330215960228E9, 0.0, 2022-05-10 20:37:01.596
110.0, 0.0, 0.0, 0.0, 0.0, 294.0595500540197, 19745.15107216252, 0.0, 0.0, -0.264, -0.896, 0.304, 192.0, 0.0, 0.0, 0.0, 0.0, 0.0, 0.0, 0.0, 0.0, 0.0, 1.652233021596026E9, 0.0, 2022-05-10 20:37:01.596
111.0, 0.0, 0.0, 0.0, 0.0, 251.07714546646423, 19729.28133359925, 0.0, 0.0, -0.264, -0.896, 0.304, 192.0, 0.0, 0.0, 0.0, 0.0, 0.0, 0.0, 0.0, 0.0, 0.0, 1.652233021596029E9, 0.0, 2022-05-10 20:37:01.596
112.0, 0.0, 0.0, 0.0, 0.0, 175.3047317629733, 19674.340745728106, 0.0, 0.0, -0.264, -0.896, 0.304, 192.0, 0.0, 0.0, 0.0, 0.0, 0.0, 0.0, 0.0, 0.0, 0.0, 1.6522330215960321E9, 0.0, 2022-05-10 20:37:01.596
113.0, 0.0, 0.0, 0.0, 0.0, 117.23489966808555, 19634.75580629776, 0.0, 0.0, -0.264, -0.896, 0.304, 192.0, 0.0, 0.0, 0.0, 0.0, 0.0, 0.0, 0.0, 0.0, 0.0, 1.6522330215960352E9, 0.0, 2022-05-10 20:37:01.596
114.0, 0.0, 0.0, 0.0, 0.0, 103.53328031698231, 19624.921038737422, 0.0, 0.0, -0.264, -0.896, 0.304, 192.0, 0.0, 0.0, 0.0, 0.0, 0.0, 0.0, 0.0, 0.0, 0.0, 1.6522330215960383E9, 0.0, 2022-05-10 20:37:01.596
115.0, 0.0, 0.0, 0.0, 0.0, 67.01052987701057, 19602.68105300439, 0.0, 0.0, -0.264, -0.896, 0.304, 192.0, 0.0, 0.0, 0.0, 0.0, 0.0, 0.0, 0.0, 0.0, 0.0, 1.6522330215960417E9, 0.0, 2022-05-10 20:37:01.596
116.0, 0.0, 0.0, 0.0, 0.0, 18.619003131270784, 19563.543148463148, 0.0, 0.0, -0.24, -0.896, 0.298, 192.0, 248.0, 128.0, 228.0, 0.0, 9.0, 80.0, 0.0, 0.0, 0.0, 1.6522330215960448E9, 0.0, 2022-05-10 20:37:01.596
117.0, 0.0, 0.0, 0.0, 0.0, -30.19720675911984, 19519.107880485997, 0.0, 0.0, -0.24, -0.896, 0.298, 192.0, 0.0, 0.0, 0.0, 0.0, 0.0, 0.0, 0.0, 0.0, 0.0, 1.652233021596048E9, 0.0, 2022-05-10 20:37:01.596
118.0, 0.0, 0.0, 0.0, 0.0, -62.31666354139609, 19484.641490535916, 0.0, 0.0, -0.24, -0.896, 0.298, 192.0, 0.0, 0.0, 0.0, 0.0, 0.0, 0.0, 0.0, 0.0, 0.0, 1.652233021596051E9, 0.0, 2022-05-10 20:37:01.596
119.0, 0.0, 0.0, 0.0, 0.0, -76.53237301497138, 19471.833940963024, 0.0, 0.0, -0.24, -0.896, 0.298, 192.0, 0.0, 0.0, 0.0, 0.0, 0.0, 0.0, 0.0, 0.0, 0.0, 1.6522330215960543E9, 0.0, 2022-05-10 20:37:01.596
120.0, 0.0, 0.0, 0.0, 0.0, -128.27666142900722, 19426.817527630035, 0.0, 0.0, -0.24, -0.896, 0.298, 192.0, 0.0, 0.0, 0.0, 0.0, 0.0, 0.0, 0.0, 0.0, 0.0, 1.6522330215960577E9, 0.0, 2022-05-10 20:37:01.596
121.0, 0.0, 0.0, 0.0, 0.0, -172.57781893942584, 19372.726306048193, 0.0, 0.0, -0.24, -0.896, 0.298, 192.0, 0.0, 0.0, 0.0, 0.0, 0.0, 0.0, 0.0, 0.0, 0.0, 1.6522330215960608E9, 0.0, 2022-05-10 20:37:01.596
122.0, 0.0, 0.0, 0.0, 0.0, -204.83138618843392, 19335.68946548575, 0.0, 0.0, -0.24, -0.896, 0.298, 192.0, 0.0, 0.0, 0.0, 0.0, 0.0, 0.0, 0.0, 0.0, 0.0, 1.652233021596064E9, 0.0, 2022-05-10 20:37:01.596
123.0, 0.0, 0.0, 0.0, 0.0, -239.96832847217664, 19304.39702324832, 0.0, 0.0, -0.24, -0.896, 0.298, 192.0, 0.0, 0.0, 0.0, 0.0, 0.0, 0.0, 0.0, 0.0, 0.0, 1.6522330215960672E9, 0.0, 2022-05-10 20:37:01.596
124.0, 0.0, 0.0, 0.0, 0.0, -283.2189539931958, 19262.48750239462, 0.0, 0.0, -0.24, -0.896, 0.298, 192.0, 0.0, 0.0, 0.0, 0.0, 0.0, 0.0, 0.0, 0.0, 0.0, 1.6522330215960703E9, 0.0, 2022-05-10 20:37:01.596
125.0, 0.0, 0.0, 0.0, 0.0, -345.66972800132373, 19199.81321094194, 0.0, 0.0, -0.24, -0.896, 0.298, 192.0, 0.0, 0.0, 0.0, 0.0, 0.0, 0.0, 0.0, 0.0, 0.0, 1.6522330215960736E9, 0.0, 2022-05-10 20:37:01.596
126.0, 0.0, 0.0, 0.0, 0.0, -385.5005366206809, 19165.74915239205, 0.0, 0.0, -0.244, -0.968, 0.296, 192.0, 248.0, 96.0, 225.0, 192.0, 9.0, 64.0, 0.0, 0.0, 0.0, 1.6522330215960767E9, 0.0, 2022-05-10 20:37:01.596
127.0, 0.0, 0.0, 0.0, 0.0, -403.76191184066676, 19156.137902276267, 0.0, 0.0, -0.244, -0.968, 0.296, 192.0, 0.0, 0.0, 0.0, 0.0, 0.0, 0.0, 0.0, 0.0, 0.0, 1.6522330215960798E9, 0.0, 2022-05-10 20:37:01.596
128.0, 0.0, 0.0, 0.0, 0.0, -435.2778715226497, 19118.810489035903, 0.0, 0.0, -0.244, -0.968, 0.296, 192.0, 0.0, 0.0, 0.0, 0.0, 0.0, 0.0, 0.0, 0.0, 0.0, 1.6522330215960844E9, 0.0, 2022-05-10 20:37:01.596
129.0, 0.0, 0.0, 0.0, 0.0, -502.46721535530276, 19039.23827877501, 0.0, 0.0, -0.244, -0.968, 0.296, 192.0, 0.0, 0.0, 0.0, 0.0, 0.0, 0.0, 0.0, 0.0, 0.0, 1.6522330215960877E9, 0.0, 2022-05-10 20:37:01.596
130.0, 0.0, 0.0, 0.0, 0.0, -535.6595558714338, 19007.43174641511, 0.0, 0.0, -0.244, -0.968, 0.296, 192.0, 0.0, 0.0, 0.0, 0.0, 0.0, 0.0, 0.0, 0.0, 0.0, 1.6522330215960908E9, 0.0, 2022-05-10 20:37:01.596
131.0, 0.0, 0.0, 0.0, 0.0, -558.8830183604978, 18984.476504859507, 0.0, 0.0, -0.244, -0.968, 0.296, 192.0, 0.0, 0.0, 0.0, 0.0, 0.0, 0.0, 0.0, 0.0, 0.0, 1.6522330215960937E9, 0.0, 2022-05-10 20:37:01.596
132.0, 0.0, 0.0, 0.0, 0.0, -589.393149541992, 18943.84103343976, 0.0, 0.0, -0.244, -0.968, 0.296, 192.0, 0.0, 0.0, 0.0, 0.0, 0.0, 0.0, 0.0, 0.0, 0.0, 1.6522330215960968E9, 0.0, 2022-05-10 20:37:01.596
133.0, 0.0, 0.0, 0.0, 0.0, -652.2239032058601, 18873.656555850095, 0.0, 0.0, -0.244, -0.968, 0.296, 192.0, 0.0, 0.0, 0.0, 0.0, 0.0, 0.0, 0.0, 0.0, 0.0, 1.6522330215961E9, 0.0, 2022-05-10 20:37:01.596
134.0, 0.0, 0.0, 0.0, 0.0, -682.5105169428011, 18839.078407177738, 0.0, 0.0, -0.244, -0.968, 0.296, 192.0, 0.0, 0.0, 0.0, 0.0, 0.0, 0.0, 0.0, 0.0, 0.0, 1.6522330215961032E9, 0.0, 2022-05-10 20:37:01.596
135.0, 0.0, 0.0, 0.0, 0.0, -723.7494854628427, 18811.5410580088, 0.0, 0.0, -0.244, -0.968, 0.296, 192.0, 0.0, 0.0, 0.0, 0.0, 0.0, 0.0, 0.0, 0.0, 0.0, 1.6522330215961063E9, 0.0, 2022-05-10 20:37:01.596
136.0, 0.0, 0.0, 0.0, 0.0, -758.1041166906497, 18784.76366815134, 0.0, 0.0, -0.228, -0.972, 0.274, 192.0, 248.0, 224.0, 225.0, 160.0, 8.0, 144.0, 0.0, 0.0, 0.0, 1.6522330215961096E9, 0.0, 2022-05-10 20:37:01.596
137.0, 0.0, 0.0, 0.0, 0.0, -820.3537249986798, 18727.342036645656, 0.0, 0.0, -0.228, -0.972, 0.274, 192.0, 0.0, 0.0, 0.0, 0.0, 0.0, 0.0, 0.0, 0.0, 0.0, 1.6522330215961132E9, 0.0, 2022-05-10 20:37:01.596
138.0, 0.0, 0.0, 0.0, 0.0, -868.1641063885817, 18677.51999825478, 0.0, 0.0, -0.228, -0.972, 0.274, 192.0, 0.0, 0.0, 0.0, 0.0, 0.0, 0.0, 0.0, 0.0, 0.0, 1.6522330215961163E9, 0.0, 2022-05-10 20:37:01.596
139.0, 0.0, 0.0, 0.0, 0.0, -882.3798158621569, 18652.17312004246, 0.0, 0.0, -0.228, -0.972, 0.274, 192.0, 0.0, 0.0, 0.0, 0.0, 0.0, 0.0, 0.0, 0.0, 0.0, 1.6522330215961196E9, 0.0, 2022-05-10 20:37:01.596
140.0, 0.0, 0.0, 0.0, 0.0, -900.8200050377852, 18624.63577087352, 0.0, 0.0, -0.228, -0.972, 0.274, 192.0, 0.0, 0.0, 0.0, 0.0, 0.0, 0.0, 0.0, 0.0, 0.0, 1.6522330215961227E9, 0.0, 2022-05-10 20:37:01.596
141.0, 0.0, 0.0, 0.0, 0.0, -958.2863400323797, 18569.33755509109, 0.0, 0.0, -0.228, -0.972, 0.274, 192.0, 0.0, 0.0, 0.0, 0.0, 0.0, 0.0, 0.0, 0.0, 0.0, 1.6522330215961258E9, 0.0, 2022-05-10 20:37:01.596
142.0, 0.0, 0.0, 0.0, 0.0, -1011.0588086913597, 18525.774005147698, 0.0, 0.0, -0.228, -0.972, 0.274, 192.0, 0.0, 0.0, 0.0, 0.0, 0.0, 0.0, 0.0, 0.0, 0.0, 1.6522330215961287E9, 0.0, 2022-05-10 20:37:01.596
143.0, 0.0, 0.0, 0.0, 0.0, -1032.7176490685522, 18502.19291474735, 0.0, 0.0, -0.228, -0.972, 0.274, 192.0, 0.0, 0.0, 0.0, 0.0, 0.0, 0.0, 0.0, 0.0, 0.0, 1.652233021596132E9, 0.0, 2022-05-10 20:37:01.596
144.0, 0.0, 0.0, 0.0, 0.0, -1057.170457502658, 18470.788713787642, 0.0, 0.0, -0.228, -0.972, 0.274, 192.0, 0.0, 0.0, 0.0, 0.0, 0.0, 0.0, 0.0, 0.0, 0.0, 1.6522330215961351E9, 0.0, 2022-05-10 20:37:01.596
145.0, 0.0, 0.0, 0.0, 0.0, -1107.238365082546, 18418.30681780658, 0.0, 0.0, -0.228, -0.972, 0.274, 192.0, 0.0, 0.0, 0.0, 0.0, 0.0, 0.0, 0.0, 0.0, 0.0, 1.6522330215961385E9, 0.0, 2022-05-10 20:37:01.596
146.0, 0.0, 0.0, 0.0, 0.0, -1167.3198541784113, 18358.605308366456, 0.0, 0.0, -0.20600000000000002, -0.932, 0.254, 192.0, 249.0, 144.0, 226.0, 224.0, 7.0, 240.0, 0.0, 0.0, 0.0, 1.6522330215961413E9, 0.0, 2022-05-10 20:37:01.596
147.0, 0.0, 0.0, 0.0, 0.0, -1195.23718300309, 18329.503337085647, 0.0, 0.0, -0.20600000000000002, -0.932, 0.254, 192.0, 0.0, 0.0, 0.0, 0.0, 0.0, 0.0, 0.0, 0.0, 0.0, 1.6522330215961444E9, 0.0, 2022-05-10 20:37:01.596
148.0, 0.0, 0.0, 0.0, 0.0, -1222.8862908943047, 18305.788136218565, 0.0, 0.0, -0.20600000000000002, -0.932, 0.254, 192.0, 0.0, 0.0, 0.0, 0.0, 0.0, 0.0, 0.0, 0.0, 0.0, 1.6522330215961475E9, 0.0, 2022-05-10 20:37:01.596
149.0, 0.0, 0.0, 0.0, 0.0, -1261.9347884577262, 18270.226510790173, 0.0, 0.0, -0.20600000000000002, -0.932, 0.254, 192.0, 0.0, 0.0, 0.0, 0.0, 0.0, 0.0, 0.0, 0.0, 0.0, 1.6522330215961509E9, 0.0, 2022-05-10 20:37:01.596
150.0, 0.0, 0.0, 0.0, 0.0, -1318.194129251734, 18212.961341495677, 0.0, 0.0, -0.20600000000000002, -0.932, 0.254, 192.0, 0.0, 0.0, 0.0, 0.0, 0.0, 0.0, 0.0, 0.0, 0.0, 1.652233021596155E9, 0.0, 2022-05-10 20:37:01.596
151.0, 0.0, 0.0, 0.0, 0.0, -1343.1386760638568, 18186.183951638217, 0.0, 0.0, -0.20600000000000002, -0.932, 0.254, 192.0, 0.0, 0.0, 0.0, 0.0, 0.0, 0.0, 0.0, 0.0, 0.0, 1.652233021596158E9, 0.0, 2022-05-10 20:37:01.596
152.0, 0.0, 0.0, 0.0, 0.0, -1340.3670597513985, 18184.239349870604, 0.0, 0.0, -0.20600000000000002, -0.932, 0.254, 192.0, 0.0, 0.0, 0.0, 0.0, 0.0, 0.0, 0.0, 0.0, 0.0, 1.6522330215961611E9, 0.0, 2022-05-10 20:37:01.596
153.0, 0.0, 0.0, 0.0, 0.0, -1369.1114031209236, 18143.603878450856, 0.0, 0.0, -0.20600000000000002, -0.932, 0.254, 192.0, 0.0, 0.0, 0.0, 0.0, 0.0, 0.0, 0.0, 0.0, 0.0, 1.6522330215961645E9, 0.0, 2022-05-10 20:37:01.596
154.0, 0.0, 0.0, 0.0, 0.0, -1470.3201020145539, 18025.988999127032, 0.0, 0.0, -0.20600000000000002, -0.932, 0.254, 192.0, 0.0, 0.0, 0.0, 0.0, 0.0, 0.0, 0.0, 0.0, 0.0, 1.6522330215961676E9, 0.0, 2022-05-10 20:37:01.596
155.0, 0.0, 0.0, 0.0, 0.0, -1507.1110733879893, 17989.08626903132, 0.0, 0.0, -0.20600000000000002, -0.932, 0.254, 192.0, 0.0, 0.0, 0.0, 0.0, 0.0, 0.0, 0.0, 0.0, 0.0, 1.652233021596171E9, 0.0, 2022-05-10 20:37:01.596
156.0, 0.0, 0.0, 0.0, 0.0, -1516.699971759316, 17981.196103238595, 0.0, 0.0, -0.19, -0.926, 0.242, 192.0, 250.0, 16.0, 227.0, 16.0, 7.0, 144.0, 0.0, 0.0, 0.0, 1.652233021596174E9, 0.0, 2022-05-10 20:37:01.596
157.0, 0.0, 0.0, 0.0, 0.0, -1554.5414751221508, 17942.818158008835, 0.0, 0.0, -0.19, -0.926, 0.242, 192.0, 0.0, 0.0, 0.0, 0.0, 0.0, 0.0, 0.0, 0.0, 0.0, 1.652233021596177E9, 0.0, 2022-05-10 20:37:01.596
158.0, 0.0, 0.0, 0.0, 0.0, -1617.6180979750275, 17864.34118322625, 0.0, 0.0, -0.19, -0.926, 0.242, 192.0, 0.0, 0.0, 0.0, 0.0, 0.0, 0.0, 0.0, 0.0, 0.0, 1.6522330215961802E9, 0.0, 2022-05-10 20:37:01.596
159.0, 0.0, 0.0, 0.0, 0.0, -1651.0563076801668, 17827.483156619448, 0.0, 0.0, -0.19, -0.926, 0.242, 192.0, 0.0, 0.0, 0.0, 0.0, 0.0, 0.0, 0.0, 0.0, 0.0, 1.6522330215961833E9, 0.0, 2022-05-10 20:37:01.596
160.0, 0.0, 0.0, 0.0, 0.0, -1681.6558458394823, 17800.638711528627, 0.0, 0.0, -0.19, -0.926, 0.242, 192.0, 0.0, 0.0, 0.0, 0.0, 0.0, 0.0, 0.0, 0.0, 0.0, 1.6522330215961864E9, 0.0, 2022-05-10 20:37:01.596
161.0, 0.0, 0.0, 0.0, 0.0, -1700.9230495599568, 17769.458028013472, 0.0, 0.0, -0.19, -0.926, 0.242, 192.0, 0.0, 0.0, 0.0, 0.0, 0.0, 0.0, 0.0, 0.0, 0.0, 1.6522330220750055E9, 0.0, 2022-05-10 20:37:02.075
162.0, 0.0, 0.0, 0.0, 0.0, -1747.526436749272, 17723.055806524255, 0.0, 0.0, -0.19, -0.926, 0.242, 192.0, 0.0, 0.0, 0.0, 0.0, 0.0, 0.0, 0.0, 0.0, 0.0, 1.652233022075209E9, 0.0, 2022-05-10 20:37:02.075
163.0, 0.0, 0.0, 0.0, 0.0, -1786.2620098903192, 17690.534018341783, 0.0, 0.0, -0.19, -0.926, 0.242, 192.0, 0.0, 0.0, 0.0, 0.0, 0.0, 0.0, 0.0, 0.0, 0.0, 1.652233022075215E9, 0.0, 2022-05-10 20:37:02.075
164.0, 0.0, 0.0, 0.0, 0.0, -1815.3192776822184, 17671.713849510415, 0.0, 0.0, -0.19, -0.926, 0.242, 192.0, 0.0, 0.0, 0.0, 0.0, 0.0, 0.0, 0.0, 0.0, 0.0, 1.6522330220752199E9, 0.0, 2022-05-10 20:37:02.075
165.0, 0.0, 0.0, 0.0, 0.0, -1842.1190192841316, 17636.77807292677, 0.0, 0.0, -0.19, -0.926, 0.242, 192.0, 0.0, 0.0, 0.0, 0.0, 0.0, 0.0, 0.0, 0.0, 0.0, 1.6522330220752249E9, 0.0, 2022-05-10 20:37:02.075
166.0, 0.0, 0.0, 0.0, 0.0, -1889.9964559073992, 17583.983252523336, 0.0, 0.0, -0.20800000000000002, -0.9400000000000001, 0.234, 192.0, 249.0, 128.0, 226.0, 160.0, 7.0, 80.0, 0.0, 0.0, 0.0, 1.6522330220752287E9, 0.0, 2022-05-10 20:37:02.075
167.0, 0.0, 0.0, 0.0, 0.0, -1932.0624389722873, 17541.783158991715, 0.0, 0.0, -0.20800000000000002, -0.9400000000000001, 0.234, 192.0, 0.0, 0.0, 0.0, 0.0, 0.0, 0.0, 0.0, 0.0, 0.0, 1.6522330220752325E9, 0.0, 2022-05-10 20:37:02.075
168.0, 0.0, 0.0, 0.0, 0.0, -1953.676575860569, 17516.637446479494, 0.0, 0.0, -0.20800000000000002, -0.9400000000000001, 0.234, 192.0, 0.0, 0.0, 0.0, 0.0, 0.0, 0.0, 0.0, 0.0, 0.0, 1.652233022075236E9, 0.0, 2022-05-10 20:37:02.075
169.0, 0.0, 0.0, 0.0, 0.0, -1981.839773874256, 17488.049565321155, 0.0, 0.0, -0.20800000000000002, -0.9400000000000001, 0.234, 192.0, 0.0, 0.0, 0.0, 0.0, 0.0, 0.0, 0.0, 0.0, 0.0, 1.6522330220752404E9, 0.0, 2022-05-10 20:37:02.075
170.0, 0.0, 0.0, 0.0, 0.0, -2039.7531437579567, 17441.468529876296, 0.0, 0.0, -0.20800000000000002, -0.9400000000000001, 0.234, 192.0, 0.0, 0.0, 0.0, 0.0, 0.0, 0.0, 0.0, 0.0, 0.0, 1.6522330220752451E9, 0.0, 2022-05-10 20:37:02.075
171.0, 0.0, 0.0, 0.0, 0.0, -2105.0872928008193, 17382.929311147847, 0.0, 0.0, -0.20800000000000002, -0.9400000000000001, 0.234, 192.0, 0.0, 0.0, 0.0, 0.0, 0.0, 0.0, 0.0, 0.0, 0.0, 1.6522330220752757E9, 0.0, 2022-05-10 20:37:02.075
172.0, 0.0, 0.0, 0.0, 0.0, -2137.18439783864, 17347.05476129708, 0.0, 0.0, -0.20800000000000002, -0.9400000000000001, 0.234, 192.0, 0.0, 0.0, 0.0, 0.0, 0.0, 0.0, 0.0, 0.0, 0.0, 1.6522330220752804E9, 0.0, 2022-05-10 20:37:02.075
173.0, 0.0, 0.0, 0.0, 0.0, -2151.0648311453856, 17326.021769764637, 0.0, 0.0, -0.20800000000000002, -0.9400000000000001, 0.234, 192.0, 0.0, 0.0, 0.0, 0.0, 0.0, 0.0, 0.0, 0.0, 0.0, 1.6522330220752847E9, 0.0, 2022-05-10 20:37:02.075
174.0, 0.0, 0.0, 0.0, 0.0, -2173.4389273451484, 17302.395975875377, 0.0, 0.0, -0.20800000000000002, -0.9400000000000001, 0.234, 192.0, 0.0, 0.0, 0.0, 0.0, 0.0, 0.0, 0.0, 0.0, 0.0, 1.6522330220752895E9, 0.0, 2022-05-10 20:37:02.075
175.0, 0.0, 0.0, 0.0, 0.0, -2246.01504159153, 17234.849004131436, 0.0, 0.0, -0.20800000000000002, -0.9400000000000001, 0.234, 192.0, 0.0, 0.0, 0.0, 0.0, 0.0, 0.0, 0.0, 0.0, 0.0, 1.6522330220752935E9, 0.0, 2022-05-10 20:37:02.075
176.0, 0.0, 0.0, 0.0, 0.0, -2278.40271930727, 17194.21353271169, 0.0, 0.0, -0.22, -0.936, 0.23800000000000002, 192.0, 249.0, 32.0, 226.0, 192.0, 7.0, 112.0, 0.0, 0.0, 0.0, 1.6522330220752976E9, 0.0, 2022-05-10 20:37:02.075
177.0, 0.0, 0.0, 0.0, 0.0, -2294.6747892707335, 17179.394326137823, 0.0, 0.0, -0.22, -0.936, 0.23800000000000002, 192.0, 0.0, 0.0, 0.0, 0.0, 0.0, 0.0, 0.0, 0.0, 0.0, 1.6522330220753016E9, 0.0, 2022-05-10 20:37:02.075
178.0, 0.0, 0.0, 0.0, 0.0, -2311.751522034588, 17158.048410183004, 0.0, 0.0, -0.22, -0.936, 0.23800000000000002, 192.0, 0.0, 0.0, 0.0, 0.0, 0.0, 0.0, 0.0, 0.0, 0.0, 1.6522330220753057E9, 0.0, 2022-05-10 20:37:02.075
179.0, 0.0, 0.0, 0.0, 0.0, -2386.7416246821435, 17086.4334209482, 0.0, 0.0, -0.22, -0.936, 0.23800000000000002, 192.0, 0.0, 0.0, 0.0, 0.0, 0.0, 0.0, 0.0, 0.0, 0.0, 1.6522330220753095E9, 0.0, 2022-05-10 20:37:02.075
180.0, 0.0, 0.0, 0.0, 0.0, -2427.1312269128834, 17056.526786866998, 0.0, 0.0, -0.22, -0.936, 0.23800000000000002, 192.0, 0.0, 0.0, 0.0, 0.0, 0.0, 0.0, 0.0, 0.0, 0.0, 1.6522330220753136E9, 0.0, 2022-05-10 20:37:02.075
181.0, 0.0, 0.0, 0.0, 0.0, -2455.920273771319, 17014.50550729102, 0.0, 0.0, -0.22, -0.936, 0.23800000000000002, 192.0, 0.0, 0.0, 0.0, 0.0, 0.0, 0.0, 0.0, 0.0, 0.0, 1.6522330220753176E9, 0.0, 2022-05-10 20:37:02.075
182.0, 0.0, 0.0, 0.0, 0.0, -2478.9649223047404, 16985.60470171031, 0.0, 0.0, -0.22, -0.936, 0.23800000000000002, 192.0, 0.0, 0.0, 0.0, 0.0, 0.0, 0.0, 0.0, 0.0, 0.0, 1.6522330220753217E9, 0.0, 2022-05-10 20:37:02.075
183.0, 0.0, 0.0, 0.0, 0.0, -2569.8024117711084, 16906.92656122763, 0.0, 0.0, -0.22, -0.936, 0.23800000000000002, 192.0, 0.0, 0.0, 0.0, 0.0, 0.0, 0.0, 0.0, 0.0, 0.0, 1.6522330220753255E9, 0.0, 2022-05-10 20:37:02.075
184.0, 0.0, 0.0, 0.0, 0.0, -2604.447615676834, 16857.328040281303, 0.0, 0.0, -0.22, -0.936, 0.23800000000000002, 192.0, 0.0, 0.0, 0.0, 0.0, 0.0, 0.0, 0.0, 0.0, 0.0, 1.6522330220753303E9, 0.0, 2022-05-10 20:37:02.075
185.0, 0.0, 0.0, 0.0, 0.0, -2576.8879147634407, 16864.301784551357, 0.0, 0.0, -0.24, -0.968, 0.262, 192.0, 248.0, 128.0, 225.0, 192.0, 8.0, 48.0, 0.0, 0.0, 0.0, 1.6522330220753353E9, 0.0, 2022-05-10 20:37:02.075
186.0, 0.0, 0.0, 0.0, 0.0, -2607.5768599005773, 16847.694438421066, 0.0, 0.0, -0.24, -0.968, 0.262, 192.0, 0.0, 0.0, 0.0, 0.0, 0.0, 0.0, 0.0, 0.0, 0.0, 1.6522330220753396E9, 0.0, 2022-05-10 20:37:02.075
187.0, 0.0, 0.0, 0.0, 0.0, -2679.057738668649, 16782.919082989585, 0.0, 0.0, -0.24, -0.968, 0.262, 192.0, 0.0, 0.0, 0.0, 0.0, 0.0, 0.0, 0.0, 0.0, 0.0, 1.6522330220753436E9, 0.0, 2022-05-10 20:37:02.075
188.0, 0.0, 0.0, 0.0, 0.0, -2732.9254428059394, 16731.443015509012, 0.0, 0.0, -0.24, -0.968, 0.262, 192.0, 0.0, 0.0, 0.0, 0.0, 0.0, 0.0, 0.0, 0.0, 0.0, 1.6522330220753489E9, 0.0, 2022-05-10 20:37:02.075
189.0, 0.0, 0.0, 0.0, 0.0, -2748.8175331136626, 16711.147631543594, 0.0, 0.0, -0.24, -0.968, 0.262, 192.0, 0.0, 0.0, 0.0, 0.0, 0.0, 0.0, 0.0, 0.0, 0.0, 1.6522330220753531E9, 0.0, 2022-05-10 20:37:02.075
190.0, 0.0, 0.0, 0.0, 0.0, -2761.9827105978384, 16700.865829094153, 0.0, 0.0, -0.24, -0.968, 0.262, 192.0, 0.0, 0.0, 0.0, 0.0, 0.0, 0.0, 0.0, 0.0, 0.0, 1.6522330220753572E9, 0.0, 2022-05-10 20:37:02.075
191.0, 0.0, 0.0, 0.0, 0.0, -2811.9835629443605, 16658.15164544006, 0.0, 0.0, -0.24, -0.968, 0.262, 192.0, 0.0, 0.0, 0.0, 0.0, 0.0, 0.0, 0.0, 0.0, 0.0, 1.6522330220753613E9, 0.0, 2022-05-10 20:37:02.075
192.0, 0.0, 0.0, 0.0, 0.0, -2885.7219679024183, 16587.162505050004, 0.0, 0.0, -0.24, -0.968, 0.262, 192.0, 0.0, 0.0, 0.0, 0.0, 0.0, 0.0, 0.0, 0.0, 0.0, 1.6522330220753675E9, 0.0, 2022-05-10 20:37:02.075
193.0, 0.0, 0.0, 0.0, 0.0, -2906.933773390505, 16570.309289730703, 0.0, 0.0, -0.24, -0.968, 0.262, 192.0, 0.0, 0.0, 0.0, 0.0, 0.0, 0.0, 0.0, 0.0, 0.0, 1.6522330220753715E9, 0.0, 2022-05-10 20:37:02.075
194.0, 0.0, 0.0, 0.0, 0.0, -2906.374979779122, 16569.41521995249, 0.0, 0.0, -0.24, -0.968, 0.262, 192.0, 0.0, 0.0, 0.0, 0.0, 0.0, 0.0, 0.0, 0.0, 0.0, 1.6522330220753753E9, 0.0, 2022-05-10 20:37:02.075
195.0, 0.0, 0.0, 0.0, 0.0, -2959.9297594940376, 16512.32886461364, 0.0, 0.0, -0.24, -0.998, 0.294, 192.0, 248.0, 128.0, 224.0, 208.0, 9.0, 48.0, 0.0, 0.0, 0.0, 1.6522330220753791E9, 0.0, 2022-05-10 20:37:02.075
196.0, 0.0, 0.0, 0.0, 0.0, -3037.557367987319, 16438.769273611222, 0.0, 0.0, -0.24, -0.998, 0.294, 192.0, 0.0, 0.0, 0.0, 0.0, 0.0, 0.0, 0.0, 0.0, 0.0, 1.6522330220753832E9, 0.0, 2022-05-10 20:37:02.075
197.0, 0.0, 0.0, 0.0, 0.0, -3056.086964140769, 16424.039474015175, 0.0, 0.0, -0.24, -0.998, 0.294, 192.0, 0.0, 0.0, 0.0, 0.0, 0.0, 0.0, 0.0, 0.0, 0.0, 1.6522330220753872E9, 0.0, 2022-05-10 20:37:02.075
198.0, 0.0, 0.0, 0.0, 0.0, -3072.2249236375005, 16408.125031962994, 0.0, 0.0, -0.24, -0.998, 0.294, 192.0, 0.0, 0.0, 0.0, 0.0, 0.0, 0.0, 0.0, 0.0, 0.0, 1.6522330220753913E9, 0.0, 2022-05-10 20:37:02.075
199.0, 0.0, 0.0, 0.0, 0.0, -3113.441540413087, 16372.071668156585, 0.0, 0.0, -0.24, -0.998, 0.294, 192.0, 0.0, 0.0, 0.0, 0.0, 0.0, 0.0, 0.0, 0.0, 0.0, 1.652233022075395E9, 0.0, 2022-05-10 20:37:02.075
200.0, 0.0, 0.0, 0.0, 0.0, -3184.162459869678, 16311.476088938249, 0.0, 0.0, -0.24, -0.998, 0.294, 192.0, 0.0, 0.0, 0.0, 0.0, 0.0, 0.0, 0.0, 0.0, 0.0, 1.6522330220753992E9, 0.0, 2022-05-10 20:37:02.075
201.0, 0.0, 0.0, 0.0, 0.0, -3206.3130386248877, 16291.337167184016, 0.0, 0.0, -0.24, -0.998, 0.294, 192.0, 0.0, 0.0, 0.0, 0.0, 0.0, 0.0, 0.0, 0.0, 0.0, 1.6522330220754037E9, 0.0, 2022-05-10 20:37:02.075
202.0, 0.0, 0.0, 0.0, 0.0, -3201.2838961224434, 16283.670518835846, 0.0, 0.0, -0.24, -0.998, 0.294, 192.0, 0.0, 0.0, 0.0, 0.0, 0.0, 0.0, 0.0, 0.0, 0.0, 1.6522330220754075E9, 0.0, 2022-05-10 20:37:02.075
203.0, 0.0, 0.0, 0.0, 0.0, -3221.9816114880578, 16250.567585297536, 0.0, 0.0, -0.24, -0.998, 0.294, 192.0, 0.0, 0.0, 0.0, 0.0, 0.0, 0.0, 0.0, 0.0, 0.0, 1.6522330220754123E9, 0.0, 2022-05-10 20:37:02.075
204.0, 0.0, 0.0, 0.0, 0.0, -3313.646115499272, 16172.470590170693, 0.0, 0.0, -0.24, -0.998, 0.294, 192.0, 0.0, 0.0, 0.0, 0.0, 0.0, 0.0, 0.0, 0.0, 0.0, 1.6522330220754168E9, 0.0, 2022-05-10 20:37:02.075
205.0, 0.0, 0.0, 0.0, 0.0, -3352.3146334069534, 16139.47941535466, 0.0, 0.0, -0.226, -0.892, 0.304, 192.0, 248.0, 240.0, 228.0, 32.0, 9.0, 128.0, 0.0, 0.0, 0.0, 1.652233022075421E9, 0.0, 2022-05-10 20:37:02.075
206.0, 0.0, 0.0, 0.0, 0.0, -3365.815087057959, 16124.056711680498, 0.0, 0.0, -0.226, -0.892, 0.304, 192.0, 0.0, 0.0, 0.0, 0.0, 0.0, 0.0, 0.0, 0.0, 0.0, 1.6522330220754254E9, 0.0, 2022-05-10 20:37:02.075
207.0, 0.0, 0.0, 0.0, 0.0, -3386.6022094013942, 16102.174353858753, 0.0, 0.0, -0.226, -0.892, 0.304, 192.0, 0.0, 0.0, 0.0, 0.0, 0.0, 0.0, 0.0, 0.0, 0.0, 1.6522330220754294E9, 0.0, 2022-05-10 20:37:02.075
208.0, 0.0, 0.0, 0.0, 0.0, -3455.9820241906673, 16030.537012879493, 0.0, 0.0, -0.226, -0.892, 0.304, 192.0, 0.0, 0.0, 0.0, 0.0, 0.0, 0.0, 0.0, 0.0, 0.0, 1.6522330220754335E9, 0.0, 2022-05-10 20:37:02.075
209.0, 0.0, 0.0, 0.0, 0.0, -3503.83710906948, 15993.544875805961, 0.0, 0.0, -0.226, -0.892, 0.304, 192.0, 0.0, 0.0, 0.0, 0.0, 0.0, 0.0, 0.0, 0.0, 0.0, 1.6522330220754375E9, 0.0, 2022-05-10 20:37:02.075
210.0, 0.0, 0.0, 0.0, 0.0, -3511.5261091621055, 15996.16002990723, 0.0, 0.0, -0.226, -0.892, 0.304, 192.0, 0.0, 0.0, 0.0, 0.0, 0.0, 0.0, 0.0, 0.0, 0.0, 1.6522330220754416E9, 0.0, 2022-05-10 20:37:02.075
211.0, 0.0, 0.0, 0.0, 0.0, -3507.9721817937116, 15997.88111423029, 0.0, 0.0, -0.226, -0.892, 0.304, 192.0, 0.0, 0.0, 0.0, 0.0, 0.0, 0.0, 0.0, 0.0, 0.0, 1.6522330220754457E9, 0.0, 2022-05-10 20:37:02.075
212.0, 0.0, 0.0, 0.0, 0.0, -3606.5880783305265, 15901.768613072469, 0.0, 0.0, -0.226, -0.892, 0.304, 192.0, 0.0, 0.0, 0.0, 0.0, 0.0, 0.0, 0.0, 0.0, 0.0, 1.6522330220754497E9, 0.0, 2022-05-10 20:37:02.075
213.0, 0.0, 0.0, 0.0, 0.0, -3663.5179714581936, 15850.828987458824, 0.0, 0.0, -0.226, -0.892, 0.304, 192.0, 0.0, 0.0, 0.0, 0.0, 0.0, 0.0, 0.0, 0.0, 0.0, 1.6522330220754535E9, 0.0, 2022-05-10 20:37:02.075
214.0, 0.0, 0.0, 0.0, 0.0, -3673.7103669298135, 15833.215812828043, 0.0, 0.0, -0.226, -0.892, 0.304, 192.0, 0.0, 0.0, 0.0, 0.0, 0.0, 0.0, 0.0, 0.0, 0.0, 1.6522330220754592E9, 0.0, 2022-05-10 20:37:02.075
215.0, 0.0, 0.0, 0.0, 0.0, -3695.2574485847294, 15811.422861984118, 0.0, 0.0, -0.258, -0.926, 0.328, 192.0, 247.0, 240.0, 227.0, 16.0, 10.0, 64.0, 0.0, 0.0, 0.0, 1.6522330220754633E9, 0.0, 2022-05-10 20:37:02.075
216.0, 0.0, 0.0, 0.0, 0.0, -3746.2864811761956, 15763.567777105305, 0.0, 0.0, -0.258, -0.926, 0.328, 192.0, 0.0, 0.0, 0.0, 0.0, 0.0, 0.0, 0.0, 0.0, 0.0, 1.6522330220754673E9, 0.0, 2022-05-10 20:37:02.075
217.0, 0.0, 0.0, 0.0, 0.0, -3797.1143480675637, 15715.198602104021, 0.0, 0.0, -0.258, -0.926, 0.328, 192.0, 0.0, 0.0, 0.0, 0.0, 0.0, 0.0, 0.0, 0.0, 0.0, 1.6522330220754712E9, 0.0, 2022-05-10 20:37:02.075
218.0, 0.0, 0.0, 0.0, 0.0, -3802.5681737146588, 15704.715633954482, 0.0, 0.0, -0.258, -0.926, 0.328, 192.0, 0.0, 0.0, 0.0, 0.0, 0.0, 0.0, 0.0, 0.0, 0.0, 1.6522330220754752E9, 0.0, 2022-05-10 20:37:02.075
219.0, 0.0, 0.0, 0.0, 0.0, -3818.5049675112928, 15696.959578628492, 0.0, 0.0, -0.258, -0.926, 0.328, 192.0, 0.0, 0.0, 0.0, 0.0, 0.0, 0.0, 0.0, 0.0, 0.0, 1.65223302207548E9, 0.0, 2022-05-10 20:37:02.075
220.0, 0.0, 0.0, 0.0, 0.0, -3861.2415029098397, 15652.010220528868, 0.0, 0.0, -0.258, -0.926, 0.328, 192.0, 0.0, 0.0, 0.0, 0.0, 0.0, 0.0, 0.0, 0.0, 0.0, 1.6522330220754848E9, 0.0, 2022-05-10 20:37:02.075
221.0, 0.0, 0.0, 0.0, 0.0, -3932.521215977814, 15579.277644071299, 0.0, 0.0, -0.258, -0.926, 0.328, 192.0, 0.0, 0.0, 0.0, 0.0, 0.0, 0.0, 0.0, 0.0, 0.0, 1.6522330220754898E9, 0.0, 2022-05-10 20:37:02.075
222.0, 0.0, 0.0, 0.0, 0.0, -3949.68735571949, 15565.732486931383, 0.0, 0.0, -0.258, -0.926, 0.328, 192.0, 0.0, 0.0, 0.0, 0.0, 0.0, 0.0, 0.0, 0.0, 0.0, 1.652233022075494E9, 0.0, 2022-05-10 20:37:02.075
223.0, 0.0, 0.0, 0.0, 0.0, -3968.574579784224, 15547.873443111594, 0.0, 0.0, -0.258, -0.926, 0.328, 192.0, 0.0, 0.0, 0.0, 0.0, 0.0, 0.0, 0.0, 0.0, 0.0, 1.652233022075498E9, 0.0, 2022-05-10 20:37:02.075
224.0, 0.0, 0.0, 0.0, 0.0, -3999.6882080660116, 15512.691797338939, 0.0, 0.0, -0.258, -0.926, 0.328, 192.0, 0.0, 0.0, 0.0, 0.0, 0.0, 0.0, 0.0, 0.0, 0.0, 1.6522330220755026E9, 0.0, 2022-05-10 20:37:02.075
225.0, 0.0, 0.0, 0.0, 0.0, -4062.675423941067, 15446.82120642915, 0.0, 0.0, -0.264, -0.9, 0.34800000000000003, 192.0, 247.0, 192.0, 227.0, 224.0, 10.0, 224.0, 0.0, 0.0, 0.0, 1.6522330220755064E9, 0.0, 2022-05-10 20:37:02.075
226.0, 0.0, 0.0, 0.0, 0.0, -4108.742369263455, 15406.47630768732, 0.0, 0.0, -0.264, -0.9, 0.34800000000000003, 192.0, 0.0, 0.0, 0.0, 0.0, 0.0, 0.0, 0.0, 0.0, 0.0, 1.6522330220755105E9, 0.0, 2022-05-10 20:37:02.075
227.0, 0.0, 0.0, 0.0, 0.0, -4123.718038048511, 15393.579351136608, 0.0, 0.0, -0.264, -0.9, 0.34800000000000003, 192.0, 0.0, 0.0, 0.0, 0.0, 0.0, 0.0, 0.0, 0.0, 0.0, 1.6522330220755148E9, 0.0, 2022-05-10 20:37:02.075
228.0, 0.0, 0.0, 0.0, 0.0, -4139.431314400592, 15375.407382894444, 0.0, 0.0, -0.264, -0.9, 0.34800000000000003, 192.0, 0.0, 0.0, 0.0, 0.0, 0.0, 0.0, 0.0, 0.0, 0.0, 1.6522330220755188E9, 0.0, 2022-05-10 20:37:02.075
229.0, 0.0, 0.0, 0.0, 0.0, -4213.16971935865, 15311.637855963452, 0.0, 0.0, -0.264, -0.9, 0.34800000000000003, 192.0, 0.0, 0.0, 0.0, 0.0, 0.0, 0.0, 0.0, 0.0, 0.0, 1.6522330220755227E9, 0.0, 2022-05-10 20:37:02.075
230.0, 0.0, 0.0, 0.0, 0.0, -4241.288213883426, 15290.448402219821, 0.0, 0.0, -0.264, -0.9, 0.34800000000000003, 192.0, 0.0, 0.0, 0.0, 0.0, 0.0, 0.0, 0.0, 0.0, 0.0, 1.6522330220755267E9, 0.0, 2022-05-10 20:37:02.075
231.0, 0.0, 0.0, 0.0, 0.0, -4248.597234320311, 15275.249215990212, 0.0, 0.0, -0.264, -0.9, 0.34800000000000003, 192.0, 0.0, 0.0, 0.0, 0.0, 0.0, 0.0, 0.0, 0.0, 0.0, 1.6522330220755308E9, 0.0, 2022-05-10 20:37:02.075
232.0, 0.0, 0.0, 0.0, 0.0, -4267.216237451582, 15249.231785444235, 0.0, 0.0, -0.264, -0.9, 0.34800000000000003, 192.0, 0.0, 0.0, 0.0, 0.0, 0.0, 0.0, 0.0, 0.0, 0.0, 1.6522330220755353E9, 0.0, 2022-05-10 20:37:02.075
233.0, 0.0, 0.0, 0.0, 0.0, -4320.323982277391, 15202.114308132448, 0.0, 0.0, -0.264, -0.9, 0.34800000000000003, 192.0, 0.0, 0.0, 0.0, 0.0, 0.0, 0.0, 0.0, 0.0, 0.0, 1.6522330220755398E9, 0.0, 2022-05-10 20:37:02.075
234.0, 0.0, 0.0, 0.0, 0.0, -4396.0293407475165, 15130.588725875465, 0.0, 0.0, -0.264, -0.9, 0.34800000000000003, 192.0, 0.0, 0.0, 0.0, 0.0, 0.0, 0.0, 0.0, 0.0, 0.0, 1.652233022075544E9, 0.0, 2022-05-10 20:37:02.075
235.0, 0.0, 0.0, 0.0, 0.0, -4428.528777185533, 15106.515897097099, 0.0, 0.0, -0.268, -0.876, 0.35000000000000003, 192.0, 247.0, 160.0, 228.0, 160.0, 10.0, 240.0, 0.0, 0.0, 0.0, 1.6522330220755513E9, 0.0, 2022-05-10 20:37:02.075
236.0, 0.0, 0.0, 0.0, 0.0, -4437.715344156664, 15103.140783684348, 0.0, 0.0, -0.268, -0.876, 0.35000000000000003, 192.0, 0.0, 0.0, 0.0, 0.0, 0.0, 0.0, 0.0, 0.0, 0.0, 1.652233022075555E9, 0.0, 2022-05-10 20:37:02.075
237.0, 0.0, 0.0, 0.0, 0.0, -4471.5111817730885, 15066.059239632994, 0.0, 0.0, -0.268, -0.876, 0.35000000000000003, 192.0, 0.0, 0.0, 0.0, 0.0, 0.0, 0.0, 0.0, 0.0, 0.0, 1.6522330220755591E9, 0.0, 2022-05-10 20:37:02.075
238.0, 0.0, 0.0, 0.0, 0.0, -4529.737476079164, 15014.247895985593, 0.0, 0.0, -0.268, -0.876, 0.35000000000000003, 192.0, 0.0, 0.0, 0.0, 0.0, 0.0, 0.0, 0.0, 0.0, 0.0, 1.6522330220755632E9, 0.0, 2022-05-10 20:37:02.075
239.0, 0.0, 0.0, 0.0, 0.0, -4575.647959190364, 14994.891285287296, 0.0, 0.0, -0.268, -0.876, 0.35000000000000003, 192.0, 0.0, 0.0, 0.0, 0.0, 0.0, 0.0, 0.0, 0.0, 0.0, 1.6522330220755672E9, 0.0, 2022-05-10 20:37:02.075
240.0, 0.0, 0.0, 0.0, 0.0, -4601.598334502975, 14979.043898468484, 0.0, 0.0, -0.268, -0.876, 0.35000000000000003, 192.0, 0.0, 0.0, 0.0, 0.0, 0.0, 0.0, 0.0, 0.0, 0.0, 1.6522330220755713E9, 0.0, 2022-05-10 20:37:02.075
241.0, 0.0, 0.0, 0.0, 0.0, -4650.012212993171, 14930.00417113354, 0.0, 0.0, -0.268, -0.876, 0.35000000000000003, 192.0, 0.0, 0.0, 0.0, 0.0, 0.0, 0.0, 0.0, 0.0, 0.0, 1.652233022075575E9, 0.0, 2022-05-10 20:37:02.075
242.0, 0.0, 0.0, 0.0, 0.0, -4727.773931953184, 14886.23945549005, 0.0, 0.0, -0.268, -0.876, 0.35000000000000003, 192.0, 0.0, 0.0, 0.0, 0.0, 0.0, 0.0, 0.0, 0.0, 0.0, 1.6522330220755792E9, 0.0, 2022-05-10 20:37:02.075
243.0, 0.0, 0.0, 0.0, 0.0, -4755.803019500139, 14886.999414801528, 0.0, 0.0, -0.268, -0.876, 0.35000000000000003, 192.0, 0.0, 0.0, 0.0, 0.0, 0.0, 0.0, 0.0, 0.0, 0.0, 1.6522330220755832E9, 0.0, 2022-05-10 20:37:02.075
244.0, 0.0, 0.0, 0.0, 0.0, -4756.562978811619, 14892.363833470803, 0.0, 0.0, -0.268, -0.876, 0.35000000000000003, 192.0, 0.0, 0.0, 0.0, 0.0, 0.0, 0.0, 0.0, 0.0, 0.0, 1.6522330220755873E9, 0.0, 2022-05-10 20:37:02.075
245.0, 0.0, 0.0, 0.0, 0.0, -4782.692168079873, 14867.575748869867, 0.0, 0.0, -0.268, -0.896, 0.358, 192.0, 247.0, 160.0, 228.0, 0.0, 11.0, 48.0, 0.0, 0.0, 0.0, 1.652233022075591E9, 0.0, 2022-05-10 20:37:02.075
246.0, 0.0, 0.0, 0.0, 0.0, -4868.634625510529, 14790.953968877075, 0.0, 0.0, -0.268, -0.896, 0.358, 192.0, 0.0, 0.0, 0.0, 0.0, 0.0, 0.0, 0.0, 0.0, 0.0, 1.6522330220755951E9, 0.0, 2022-05-10 20:37:02.075
247.0, 0.0, 0.0, 0.0, 0.0, -4895.367311879077, 14768.222244766028, 0.0, 0.0, -0.268, -0.896, 0.358, 192.0, 0.0, 0.0, 0.0, 0.0, 0.0, 0.0, 0.0, 0.0, 0.0, 1.6522330220755992E9, 0.0, 2022-05-10 20:37:02.075
248.0, 0.0, 0.0, 0.0, 0.0, -4910.2088701974, 14758.812160350342, 0.0, 0.0, -0.268, -0.896, 0.358, 192.0, 0.0, 0.0, 0.0, 0.0, 0.0, 0.0, 0.0, 0.0, 0.0, 1.6522330220756032E9, 0.0, 2022-05-10 20:37:02.075
249.0, 0.0, 0.0, 0.0, 0.0, -4915.528585377763, 14733.331171671292, 0.0, 0.0, -0.268, -0.896, 0.358, 192.0, 0.0, 0.0, 0.0, 0.0, 0.0, 0.0, 0.0, 0.0, 0.0, 1.6522330220756075E9, 0.0, 2022-05-10 20:37:02.075
250.0, 0.0, 0.0, 0.0, 0.0, -4987.255333334843, 14665.359516782704, 0.0, 0.0, -0.268, -0.896, 0.358, 192.0, 0.0, 0.0, 0.0, 0.0, 0.0, 0.0, 0.0, 0.0, 0.0, 1.6522330220756123E9, 0.0, 2022-05-10 20:37:02.075
251.0, 0.0, 0.0, 0.0, 0.0, -5021.028819206813, 14641.018467070875, 0.0, 0.0, -0.268, -0.896, 0.358, 192.0, 0.0, 0.0, 0.0, 0.0, 0.0, 0.0, 0.0, 0.0, 0.0, 1.6522330220756173E9, 0.0, 2022-05-10 20:37:02.075
252.0, 0.0, 0.0, 0.0, 0.0, -5033.657554824061, 14626.556888408291, 0.0, 0.0, -0.268, -0.896, 0.358, 192.0, 0.0, 0.0, 0.0, 0.0, 0.0, 0.0, 0.0, 0.0, 0.0, 1.6522330220756216E9, 0.0, 2022-05-10 20:37:02.075
253.0, 0.0, 0.0, 0.0, 0.0, -5054.131752745122, 14606.954408520987, 0.0, 0.0, -0.268, -0.896, 0.358, 192.0, 0.0, 0.0, 0.0, 0.0, 0.0, 0.0, 0.0, 0.0, 0.0, 1.6522330220756257E9, 0.0, 2022-05-10 20:37:02.075
254.0, 0.0, 0.0, 0.0, 0.0, -5122.4833872894515, 14542.06729436723, 0.0, 0.0, -0.268, -0.896, 0.358, 192.0, 0.0, 0.0, 0.0, 0.0, 0.0, 0.0, 0.0, 0.0, 0.0, 1.6522330220756297E9, 0.0, 2022-05-10 20:37:02.075
255.0, 0.0, 0.0, 0.0, 0.0, -5161.509533108418, 14503.242314248362, 0.0, 0.0, -0.264, -0.924, 0.35000000000000003, 192.0, 247.0, 192.0, 227.0, 32.0, 10.0, 240.0, 0.0, 0.0, 0.0, 1.6522330220756335E9, 0.0, 2022-05-10 20:37:02.075
0.0, 0.0, 0.0, 0.0, 0.0, -5174.182972214577, 14485.405622173026, 0.0, 0.0, -0.264, -0.924, 0.35000000000000003, 192.0, 0.0, 0.0, 0.0, 0.0, 0.0, 0.0, 0.0, 0.0, 0.0, 1.6522330220756395E9, 0.0, 2022-05-10 20:37:02.075
1.0, 0.0, 0.0, 0.0, 0.0, -5184.129498497188, 14470.318194665695, 0.0, 0.0, -0.264, -0.924, 0.35000000000000003, 192.0, 0.0, 0.0, 0.0, 0.0, 0.0, 0.0, 0.0, 0.0, 0.0, 1.6522330220756435E9, 0.0, 2022-05-10 20:37:02.075
2.0, 0.0, 0.0, 0.0, 0.0, -5243.003993392467, 14406.682778201435, 0.0, 0.0, -0.264, -0.924, 0.35000000000000003, 192.0, 0.0, 0.0, 0.0, 0.0, 0.0, 0.0, 0.0, 0.0, 0.0, 1.6522330220756476E9, 0.0, 2022-05-10 20:37:02.075
3.0, 0.0, 0.0, 0.0, 0.0, -5296.357607407285, 14363.186283491408, 0.0, 0.0, -0.264, -0.924, 0.35000000000000003, 192.0, 0.0, 0.0, 0.0, 0.0, 0.0, 0.0, 0.0, 0.0, 0.0, 1.6522330220756516E9, 0.0, 2022-05-10 20:37:02.075
4.0, 0.0, 0.0, 0.0, 0.0, -5311.534441892439, 14355.162007231953, 0.0, 0.0, -0.264, -0.924, 0.35000000000000003, 192.0, 0.0, 0.0, 0.0, 0.0, 0.0, 0.0, 0.0, 0.0, 0.0, 1.6522330220756555E9, 0.0, 2022-05-10 20:37:02.075
5.0, 0.0, 0.0, 0.0, 0.0, -5323.894956576223, 14332.340876143084, 0.0, 0.0, -0.264, -0.924, 0.35000000000000003, 192.0, 0.0, 0.0, 0.0, 0.0, 0.0, 0.0, 0.0, 0.0, 0.0, 1.6522330220756595E9, 0.0, 2022-05-10 20:37:02.075
6.0, 0.0, 0.0, 0.0, 0.0, -5365.245683818542, 14277.44499176085, 0.0, 0.0, -0.264, -0.924, 0.35000000000000003, 192.0, 0.0, 0.0, 0.0, 0.0, 0.0, 0.0, 0.0, 0.0, 0.0, 1.6522330220756633E9, 0.0, 2022-05-10 20:37:02.075
7.0, 0.0, 0.0, 0.0, 0.0, -5422.063818223932, 14216.223563697764, 0.0, 0.0, -0.264, -0.924, 0.35000000000000003, 192.0, 0.0, 0.0, 0.0, 0.0, 0.0, 0.0, 0.0, 0.0, 0.0, 1.6522330220756676E9, 0.0, 2022-05-10 20:37:02.075
8.0, 0.0, 0.0, 0.0, 0.0, -5432.747952073569, 14211.641456084426, 0.0, 0.0, -0.274, -0.932, 0.342, 192.0, 247.0, 112.0, 226.0, 224.0, 10.0, 176.0, 0.0, 0.0, 0.0, 1.6522330220756714E9, 0.0, 2022-05-10 20:37:02.075
9.0, 0.0, 0.0, 0.0, 0.0, -5446.986013291599, 14195.011758209677, 0.0, 0.0, -0.274, -0.932, 0.342, 192.0, 0.0, 0.0, 0.0, 0.0, 0.0, 0.0, 0.0, 0.0, 0.0, 1.6522330220756752E9, 0.0, 2022-05-10 20:37:02.075
10.0, 0.0, 0.0, 0.0, 0.0, -5490.773080679546, 14155.80679843507, 0.0, 0.0, -0.274, -0.932, 0.342, 192.0, 0.0, 0.0, 0.0, 0.0, 0.0, 0.0, 0.0, 0.0, 0.0, 1.65223302207568E9, 0.0, 2022-05-10 20:37:02.075
11.0, 0.0, 0.0, 0.0, 0.0, -5554.676718077269, 14093.691300593771, 0.0, 0.0, -0.274, -0.932, 0.342, 192.0, 0.0, 0.0, 0.0, 0.0, 0.0, 0.0, 0.0, 0.0, 0.0, 1.6522330220756845E9, 0.0, 2022-05-10 20:37:02.075
12.0, 0.0, 0.0, 0.0, 0.0, -5576.626131132381, 14070.959576482723, 0.0, 0.0, -0.274, -0.932, 0.342, 192.0, 0.0, 0.0, 0.0, 0.0, 0.0, 0.0, 0.0, 0.0, 0.0, 1.6522330220756886E9, 0.0, 2022-05-10 20:37:02.075
13.0, 0.0, 0.0, 0.0, 0.0, -5582.236418990662, 14060.20838739972, 0.0, 0.0, -0.274, -0.932, 0.342, 192.0, 0.0, 0.0, 0.0, 0.0, 0.0, 0.0, 0.0, 0.0, 0.0, 1.6522330220756927E9, 0.0, 2022-05-10 20:37:02.075
14.0, 0.0, 0.0, 0.0, 0.0, -5603.5152797121145, 14032.939259164246, 0.0, 0.0, -0.274, -0.932, 0.342, 192.0, 0.0, 0.0, 0.0, 0.0, 0.0, 0.0, 0.0, 0.0, 0.0, 1.6522330220756967E9, 0.0, 2022-05-10 20:37:02.075
15.0, 0.0, 0.0, 0.0, 0.0, -5675.197324180284, 13971.449610167696, 0.0, 0.0, -0.274, -0.932, 0.342, 192.0, 0.0, 0.0, 0.0, 0.0, 0.0, 0.0, 0.0, 0.0, 0.0, 1.6522330220757003E9, 0.0, 2022-05-10 20:37:02.075
16.0, 0.0, 0.0, 0.0, 0.0, -5699.22544946974, 13951.489502369108, 0.0, 0.0, -0.274, -0.932, 0.342, 192.0, 0.0, 0.0, 0.0, 0.0, 0.0, 0.0, 0.0, 0.0, 0.0, 1.6522330220757043E9, 0.0, 2022-05-10 20:37:02.075
17.0, 0.0, 0.0, 0.0, 0.0, -5710.088397275019, 13938.525490585029, 0.0, 0.0, -0.274, -0.932, 0.342, 192.0, 0.0, 0.0, 0.0, 0.0, 0.0, 0.0, 0.0, 0.0, 0.0, 1.6522330220757084E9, 0.0, 2022-05-10 20:37:02.075
18.0, 0.0, 0.0, 0.0, 0.0, -5727.813330628077, 13916.486670552096, 0.0, 0.0, -0.274, -0.912, 0.332, 192.0, 247.0, 112.0, 227.0, 128.0, 10.0, 96.0, 0.0, 0.0, 0.0, 1.6522330220757122E9, 0.0, 2022-05-10 20:37:02.075
19.0, 0.0, 0.0, 0.0, 0.0, -5811.185337446373, 13840.669553359694, 0.0, 0.0, -0.274, -0.912, 0.332, 192.0, 0.0, 0.0, 0.0, 0.0, 0.0, 0.0, 0.0, 0.0, 0.0, 1.6522330220757163E9, 0.0, 2022-05-10 20:37:02.075
20.0, 0.0, 0.0, 0.0, 0.0, -5845.517616929725, 13804.660893042195, 0.0, 0.0, -0.274, -0.912, 0.332, 192.0, 0.0, 0.0, 0.0, 0.0, 0.0, 0.0, 0.0, 0.0, 0.0, 1.65223302207572E9, 0.0, 2022-05-10 20:37:02.075
21.0, 0.0, 0.0, 0.0, 0.0, -5854.972404834319, 13795.608436537796, 0.0, 0.0, -0.274, -0.912, 0.332, 192.0, 0.0, 0.0, 0.0, 0.0, 0.0, 0.0, 0.0, 0.0, 0.0, 1.6522330220757244E9, 0.0, 2022-05-10 20:37:02.075
22.0, 0.0, 0.0, 0.0, 0.0, -5873.166724820939, 13772.720250215561, 0.0, 0.0, -0.274, -0.912, 0.332, 192.0, 0.0, 0.0, 0.0, 0.0, 0.0, 0.0, 0.0, 0.0, 0.0, 1.65223302207573E9, 0.0, 2022-05-10 20:37:02.075
23.0, 0.0, 0.0, 0.0, 0.0, -5940.22195818686, 13703.407490659654, 0.0, 0.0, -0.274, -0.912, 0.332, 192.0, 0.0, 0.0, 0.0, 0.0, 0.0, 0.0, 0.0, 0.0, 0.0, 1.6522330220757346E9, 0.0, 2022-05-10 20:37:02.075
24.0, 0.0, 0.0, 0.0, 0.0, -5982.645569163033, 13669.566949554319, 0.0, 0.0, -0.274, -0.912, 0.332, 192.0, 0.0, 0.0, 0.0, 0.0, 0.0, 0.0, 0.0, 0.0, 0.0, 1.652233022075739E9, 0.0, 2022-05-10 20:37:02.075
25.0, 0.0, 0.0, 0.0, 0.0, -5980.56685692869, 13665.141304152168, 0.0, 0.0, -0.274, -0.912, 0.332, 192.0, 0.0, 0.0, 0.0, 0.0, 0.0, 0.0, 0.0, 0.0, 0.0, 1.6522330225545645E9, 0.0, 2022-05-10 20:37:02.554
26.0, 0.0, 0.0, 0.0, 0.0, -5983.494935452335, 13650.389152811666, 0.0, 0.0, -0.274, -0.912, 0.332, 192.0, 0.0, 0.0, 0.0, 0.0, 0.0, 0.0, 0.0, 0.0, 0.0, 1.6522330225547445E9, 0.0, 2022-05-10 20:37:02.554
27.0, 0.0, 0.0, 0.0, 0.0, -6046.7503722608535, 13592.341672461233, 0.0, 0.0, -0.274, -0.912, 0.332, 192.0, 0.0, 0.0, 0.0, 0.0, 0.0, 0.0, 0.0, 0.0, 0.0, 1.6522330225547485E9, 0.0, 2022-05-10 20:37:02.554
28.0, 0.0, 0.0, 0.0, 0.0, -6110.229326513926, 13549.426323107044, 0.0, 0.0, -0.266, -0.908, 0.316, 192.0, 247.0, 176.0, 227.0, 160.0, 9.0, 224.0, 0.0, 0.0, 0.0, 1.6522330225547533E9, 0.0, 2022-05-10 20:37:02.554
29.0, 0.0, 0.0, 0.0, 0.0, -6132.871643647152, 13536.551718300787, 0.0, 0.0, -0.266, -0.908, 0.316, 192.0, 0.0, 0.0, 0.0, 0.0, 0.0, 0.0, 0.0, 0.0, 0.0, 1.652233022554757E9, 0.0, 2022-05-10 20:37:02.554
30.0, 0.0, 0.0, 0.0, 0.0, -6107.547117179289, 13529.510918797365, 0.0, 0.0, -0.266, -0.908, 0.316, 192.0, 0.0, 0.0, 0.0, 0.0, 0.0, 0.0, 0.0, 0.0, 0.0, 1.6522330225547607E9, 0.0, 2022-05-10 20:37:02.554
31.0, 0.0, 0.0, 0.0, 0.0, -6154.59753925771, 13480.068860062225, 0.0, 0.0, -0.266, -0.908, 0.316, 192.0, 0.0, 0.0, 0.0, 0.0, 0.0, 0.0, 0.0, 0.0, 0.0, 1.6522330225547645E9, 0.0, 2022-05-10 20:37:02.554
32.0, 0.0, 0.0, 0.0, 0.0, -6237.164883275615, 13414.17591740798, 0.0, 0.0, -0.266, -0.908, 0.316, 192.0, 0.0, 0.0, 0.0, 0.0, 0.0, 0.0, 0.0, 0.0, 0.0, 1.6522330225547688E9, 0.0, 2022-05-10 20:37:02.554
33.0, 0.0, 0.0, 0.0, 0.0, -6249.860674126229, 13402.664769013498, 0.0, 0.0, -0.266, -0.908, 0.316, 192.0, 0.0, 0.0, 0.0, 0.0, 0.0, 0.0, 0.0, 0.0, 0.0, 1.6522330225547729E9, 0.0, 2022-05-10 20:37:02.554
34.0, 0.0, 0.0, 0.0, 0.0, -6247.245520024958, 13402.17303063548, 0.0, 0.0, -0.266, -0.908, 0.316, 192.0, 0.0, 0.0, 0.0, 0.0, 0.0, 0.0, 0.0, 0.0, 0.0, 1.6522330225547764E9, 0.0, 2022-05-10 20:37:02.554
35.0, 0.0, 0.0, 0.0, 0.0, -6284.170601865126, 13358.475370225355, 0.0, 0.0, -0.266, -0.908, 0.316, 192.0, 0.0, 0.0, 0.0, 0.0, 0.0, 0.0, 0.0, 0.0, 0.0, 1.65223302255478E9, 0.0, 2022-05-10 20:37:02.554
36.0, 0.0, 0.0, 0.0, 0.0, -6356.769067855963, 13291.241322903792, 0.0, 0.0, -0.266, -0.908, 0.316, 192.0, 0.0, 0.0, 0.0, 0.0, 0.0, 0.0, 0.0, 0.0, 0.0, 1.652233022554783E9, 0.0, 2022-05-10 20:37:02.554
37.0, 0.0, 0.0, 0.0, 0.0, -6358.5572074123875, 13293.901180493973, 0.0, 0.0, -0.266, -0.908, 0.316, 192.0, 0.0, 0.0, 0.0, 0.0, 0.0, 0.0, 0.0, 0.0, 0.0, 1.6522330225547864E9, 0.0, 2022-05-10 20:37:02.554
38.0, 0.0, 0.0, 0.0, 0.0, -6356.6796608781415, 13306.172288199938, 0.0, 0.0, -0.252, -0.914, 0.308, 192.0, 248.0, 32.0, 227.0, 112.0, 9.0, 160.0, 0.0, 0.0, 0.0, 1.6522330225547895E9, 0.0, 2022-05-10 20:37:02.554
39.0, 0.0, 0.0, 0.0, 0.0, -6418.571641274887, 13266.743810980775, 0.0, 0.0, -0.252, -0.914, 0.308, 192.0, 0.0, 0.0, 0.0, 0.0, 0.0, 0.0, 0.0, 0.0, 0.0, 1.652233022554793E9, 0.0, 2022-05-10 20:37:02.554
40.0, 0.0, 0.0, 0.0, 0.0, -6517.522813978531, 13189.786754821152, 0.0, 0.0, -0.252, -0.914, 0.308, 192.0, 0.0, 0.0, 0.0, 0.0, 0.0, 0.0, 0.0, 0.0, 0.0, 1.652233022554796E9, 0.0, 2022-05-10 20:37:02.554
41.0, 0.0, 0.0, 0.0, 0.0, -6561.287529622023, 13178.119144215483, 0.0, 0.0, -0.252, -0.914, 0.308, 192.0, 0.0, 0.0, 0.0, 0.0, 0.0, 0.0, 0.0, 0.0, 0.0, 1.6522330225547993E9, 0.0, 2022-05-10 20:37:02.554
42.0, 0.0, 0.0, 0.0, 0.0, -6598.480832395653, 13186.970435019784, 0.0, 0.0, -0.252, -0.914, 0.308, 192.0, 0.0, 0.0, 0.0, 0.0, 0.0, 0.0, 0.0, 0.0, 0.0, 1.6522330225548024E9, 0.0, 2022-05-10 20:37:02.554
43.0, 0.0, 0.0, 0.0, 0.0, -6621.614887906896, 13195.352339190524, 0.0, 0.0, -0.252, -0.914, 0.308, 192.0, 0.0, 0.0, 0.0, 0.0, 0.0, 0.0, 0.0, 0.0, 0.0, 1.6522330225548124E9, 0.0, 2022-05-10 20:37:02.554
44.0, 0.0, 0.0, 0.0, 0.0, -6718.219127442733, 13142.35635308699, 0.0, 0.0, -0.252, -0.914, 0.308, 192.0, 0.0, 0.0, 0.0, 0.0, 0.0, 0.0, 0.0, 0.0, 0.0, 1.6522330225548155E9, 0.0, 2022-05-10 20:37:02.554
45.0, 0.0, 0.0, 0.0, 0.0, -6776.914808382369, 13139.428274563346, 0.0, 0.0, -0.252, -0.914, 0.308, 192.0, 0.0, 0.0, 0.0, 0.0, 0.0, 0.0, 0.0, 0.0, 0.0, 1.6522330225548186E9, 0.0, 2022-05-10 20:37:02.554
46.0, 0.0, 0.0, 0.0, 0.0, -6808.229602364255, 13157.421428849868, 0.0, 0.0, -0.252, -0.914, 0.308, 192.0, 0.0, 0.0, 0.0, 0.0, 0.0, 0.0, 0.0, 0.0, 0.0, 1.6522330225548217E9, 0.0, 2022-05-10 20:37:02.554
47.0, 0.0, 0.0, 0.0, 0.0, -6842.226605680777, 13161.93648122984, 0.0, 0.0, -0.252, -0.914, 0.308, 192.0, 0.0, 0.0, 0.0, 0.0, 0.0, 0.0, 0.0, 0.0, 0.0, 1.652233022554825E9, 0.0, 2022-05-10 20:37:02.554
48.0, 0.0, 0.0, 0.0, 0.0, -6927.252641588765, 13121.83745167702, 0.0, 0.0, -0.252, -0.918, 0.298, 192.0, 248.0, 32.0, 227.0, 80.0, 9.0, 80.0, 0.0, 0.0, 0.0, 1.6522330225548282E9, 0.0, 2022-05-10 20:37:02.554
49.0, 0.0, 0.0, 0.0, 0.0, -6985.680101594938, 13108.918143381852, 0.0, 0.0, -0.252, -0.918, 0.298, 192.0, 0.0, 0.0, 0.0, 0.0, 0.0, 0.0, 0.0, 0.0, 0.0, 1.6522330225548313E9, 0.0, 2022-05-10 20:37:02.554
50.0, 0.0, 0.0, 0.0, 0.0, -7016.458453709895, 13124.273791822648, 0.0, 0.0, -0.252, -0.918, 0.298, 192.0, 0.0, 0.0, 0.0, 0.0, 0.0, 0.0, 0.0, 0.0, 0.0, 1.6522330225548344E9, 0.0, 2022-05-10 20:37:02.554
51.0, 0.0, 0.0, 0.0, 0.0, -7037.804369664714, 13141.618745519967, 0.0, 0.0, -0.252, -0.918, 0.298, 192.0, 0.0, 0.0, 0.0, 0.0, 0.0, 0.0, 0.0, 0.0, 0.0, 1.6522330225548377E9, 0.0, 2022-05-10 20:37:02.554
52.0, 0.0, 0.0, 0.0, 0.0, -7116.996600269867, 13105.49832648019, 0.0, 0.0, -0.252, -0.918, 0.298, 192.0, 0.0, 0.0, 0.0, 0.0, 0.0, 0.0, 0.0, 0.0, 0.0, 1.6522330225548413E9, 0.0, 2022-05-10 20:37:02.554
53.0, 0.0, 0.0, 0.0, 0.0, -7206.6941507690135, 13069.802590585065, 0.0, 0.0, -0.252, -0.918, 0.298, 192.0, 0.0, 0.0, 0.0, 0.0, 0.0, 0.0, 0.0, 0.0, 0.0, 1.6522330225548444E9, 0.0, 2022-05-10 20:37:02.554
54.0, 0.0, 0.0, 0.0, 0.0, -7227.95065974601, 13090.992044328696, 0.0, 0.0, -0.252, -0.918, 0.298, 192.0, 0.0, 0.0, 0.0, 0.0, 0.0, 0.0, 0.0, 0.0, 0.0, 1.6522330225548477E9, 0.0, 2022-05-10 20:37:02.554
55.0, 0.0, 0.0, 0.0, 0.0, -7231.571642347771, 13118.574096986546, 0.0, 0.0, -0.252, -0.918, 0.298, 192.0, 0.0, 0.0, 0.0, 0.0, 0.0, 0.0, 0.0, 0.0, 0.0, 1.652233022554851E9, 0.0, 2022-05-10 20:37:02.554
56.0, 0.0, 0.0, 0.0, 0.0, -7291.563724465815, 13100.625646188933, 0.0, 0.0, -0.252, -0.918, 0.298, 192.0, 0.0, 0.0, 0.0, 0.0, 0.0, 0.0, 0.0, 0.0, 0.0, 1.6522330225548542E9, 0.0, 2022-05-10 20:37:02.554
57.0, 0.0, 0.0, 0.0, 0.0, -7380.076632508831, 13052.502340376657, 0.0, 0.0, -0.252, -0.918, 0.298, 192.0, 0.0, 0.0, 0.0, 0.0, 0.0, 0.0, 0.0, 0.0, 0.0, 1.6522330225548575E9, 0.0, 2022-05-10 20:37:02.554
58.0, 0.0, 0.0, 0.0, 0.0, -7421.4720632400595, 13047.96493625223, 0.0, 0.0, -0.25, -0.926, 0.294, 192.0, 248.0, 48.0, 227.0, 16.0, 9.0, 48.0, 0.0, 0.0, 0.0, 1.6522330225548604E9, 0.0, 2022-05-10 20:37:02.554
59.0, 0.0, 0.0, 0.0, 0.0, -7445.835464696344, 13058.023221257117, 0.0, 0.0, -0.25, -0.926, 0.294, 192.0, 0.0, 0.0, 0.0, 0.0, 0.0, 0.0, 0.0, 0.0, 0.0, 1.6522330225548637E9, 0.0, 2022-05-10 20:37:02.554
60.0, 0.0, 0.0, 0.0, 0.0, -7493.779956552978, 13038.644258814367, 0.0, 0.0, -0.25, -0.926, 0.294, 192.0, 0.0, 0.0, 0.0, 0.0, 0.0, 0.0, 0.0, 0.0, 0.0, 1.6522330225548668E9, 0.0, 2022-05-10 20:37:02.554
61.0, 0.0, 0.0, 0.0, 0.0, -7588.774870488032, 12974.47240048318, 0.0, 0.0, -0.25, -0.926, 0.294, 192.0, 0.0, 0.0, 0.0, 0.0, 0.0, 0.0, 0.0, 0.0, 0.0, 1.65223302255487E9, 0.0, 2022-05-10 20:37:02.554
62.0, 0.0, 0.0, 0.0, 0.0, -7611.327780643437, 12980.440316252747, 0.0, 0.0, -0.25, -0.926, 0.294, 192.0, 0.0, 0.0, 0.0, 0.0, 0.0, 0.0, 0.0, 0.0, 0.0, 1.652233022554873E9, 0.0, 2022-05-10 20:37:02.554
63.0, 0.0, 0.0, 0.0, 0.0, -7641.547339147012, 12975.94761561723, 0.0, 0.0, -0.25, -0.926, 0.294, 192.0, 0.0, 0.0, 0.0, 0.0, 0.0, 0.0, 0.0, 0.0, 0.0, 1.652233022554877E9, 0.0, 2022-05-10 20:37:02.554
64.0, 0.0, 0.0, 0.0, 0.0, -7678.941807620741, 12965.911682356798, 0.0, 0.0, -0.25, -0.926, 0.294, 192.0, 0.0, 0.0, 0.0, 0.0, 0.0, 0.0, 0.0, 0.0, 0.0, 1.6522330225548823E9, 0.0, 2022-05-10 20:37:02.554
65.0, 0.0, 0.0, 0.0, 0.0, -7764.303119695559, 12913.586248586924, 0.0, 0.0, -0.25, -0.926, 0.294, 192.0, 0.0, 0.0, 0.0, 0.0, 0.0, 0.0, 0.0, 0.0, 0.0, 1.6522330225548856E9, 0.0, 2022-05-10 20:37:02.554
66.0, 0.0, 0.0, 0.0, 0.0, -7793.785070632109, 12894.900190222286, 0.0, 0.0, -0.25, -0.926, 0.294, 192.0, 0.0, 0.0, 0.0, 0.0, 0.0, 0.0, 0.0, 0.0, 0.0, 1.652233022554889E9, 0.0, 2022-05-10 20:37:02.554
67.0, 0.0, 0.0, 0.0, 0.0, -7805.475032982235, 12903.572667070946, 0.0, 0.0, -0.25, -0.926, 0.294, 192.0, 0.0, 0.0, 0.0, 0.0, 0.0, 0.0, 0.0, 0.0, 0.0, 1.6522330225548923E9, 0.0, 2022-05-10 20:37:02.554
68.0, 0.0, 0.0, 0.0, 0.0, -7812.538184230111, 12914.927353254243, 0.0, 0.0, -0.246, -0.932, 0.304, 192.0, 248.0, 80.0, 226.0, 224.0, 9.0, 128.0, 0.0, 0.0, 0.0, 1.6522330225548956E9, 0.0, 2022-05-10 20:37:02.554
69.0, 0.0, 0.0, 0.0, 0.0, -7894.390272425446, 12851.247233301072, 0.0, 0.0, -0.246, -0.932, 0.304, 192.0, 0.0, 0.0, 0.0, 0.0, 0.0, 0.0, 0.0, 0.0, 0.0, 1.6522330225548985E9, 0.0, 2022-05-10 20:37:02.554
70.0, 0.0, 0.0, 0.0, 0.0, -7956.2151975888255, 12795.457279140626, 0.0, 0.0, -0.246, -0.932, 0.304, 192.0, 0.0, 0.0, 0.0, 0.0, 0.0, 0.0, 0.0, 0.0, 0.0, 1.6522330225549028E9, 0.0, 2022-05-10 20:37:02.554
71.0, 0.0, 0.0, 0.0, 0.0, -7960.327918568602, 12800.575828620891, 0.0, 0.0, -0.246, -0.932, 0.304, 192.0, 0.0, 0.0, 0.0, 0.0, 0.0, 0.0, 0.0, 0.0, 0.0, 1.6522330225549061E9, 0.0, 2022-05-10 20:37:02.554
72.0, 0.0, 0.0, 0.0, 0.0, -7972.3531570855575, 12803.146279233251, 0.0, 0.0, -0.246, -0.932, 0.304, 192.0, 0.0, 0.0, 0.0, 0.0, 0.0, 0.0, 0.0, 0.0, 0.0, 1.6522330225549092E9, 0.0, 2022-05-10 20:37:02.554
73.0, 0.0, 0.0, 0.0, 0.0, -8029.3501054465905, 12768.679889283168, 0.0, 0.0, -0.246, -0.932, 0.304, 192.0, 0.0, 0.0, 0.0, 0.0, 0.0, 0.0, 0.0, 0.0, 0.0, 1.6522330225549126E9, 0.0, 2022-05-10 20:37:02.554
74.0, 0.0, 0.0, 0.0, 0.0, -8109.905792463517, 12704.642141418713, 0.0, 0.0, -0.246, -0.932, 0.304, 192.0, 0.0, 0.0, 0.0, 0.0, 0.0, 0.0, 0.0, 0.0, 0.0, 1.6522330225549157E9, 0.0, 2022-05-10 20:37:02.554
75.0, 0.0, 0.0, 0.0, 0.0, -8127.809539772218, 12691.208743001074, 0.0, 0.0, -0.246, -0.932, 0.304, 192.0, 0.0, 0.0, 0.0, 0.0, 0.0, 0.0, 0.0, 0.0, 0.0, 1.652233022554919E9, 0.0, 2022-05-10 20:37:02.554
76.0, 0.0, 0.0, 0.0, 0.0, -8132.65986831902, 12703.390443729217, 0.0, 0.0, -0.246, -0.932, 0.304, 192.0, 0.0, 0.0, 0.0, 0.0, 0.0, 0.0, 0.0, 0.0, 0.0, 1.6522330225549226E9, 0.0, 2022-05-10 20:37:02.554
77.0, 0.0, 0.0, 0.0, 0.0, -8178.100964796658, 12673.908492792665, 0.0, 0.0, -0.246, -0.932, 0.304, 192.0, 0.0, 0.0, 0.0, 0.0, 0.0, 0.0, 0.0, 0.0, 0.0, 1.6522330225549262E9, 0.0, 2022-05-10 20:37:02.554
78.0, 0.0, 0.0, 0.0, 0.0, -8234.270898612845, 12622.387721823183, 0.0, 0.0, -0.242, -0.924, 0.302, 192.0, 248.0, 112.0, 227.0, 32.0, 9.0, 112.0, 0.0, 0.0, 0.0, 1.6522330225549295E9, 0.0, 2022-05-10 20:37:02.554
79.0, 0.0, 0.0, 0.0, 0.0, -8261.58473033723, 12596.213829066019, 0.0, 0.0, -0.242, -0.924, 0.302, 192.0, 0.0, 0.0, 0.0, 0.0, 0.0, 0.0, 0.0, 0.0, 0.0, 1.652233022554933E9, 0.0, 2022-05-10 20:37:02.554
80.0, 0.0, 0.0, 0.0, 0.0, -8267.26207342888, 12594.135116831674, 0.0, 0.0, -0.242, -0.924, 0.302, 192.0, 0.0, 0.0, 0.0, 0.0, 0.0, 0.0, 0.0, 0.0, 0.0, 1.652233022554936E9, 0.0, 2022-05-10 20:37:02.554
81.0, 0.0, 0.0, 0.0, 0.0, -8311.227954772468, 12564.407296706117, 0.0, 0.0, -0.242, -0.924, 0.302, 192.0, 0.0, 0.0, 0.0, 0.0, 0.0, 0.0, 0.0, 0.0, 0.0, 1.6522330225549393E9, 0.0, 2022-05-10 20:37:02.554
82.0, 0.0, 0.0, 0.0, 0.0, -8389.347301643766, 12507.56681055627, 0.0, 0.0, -0.242, -0.924, 0.302, 192.0, 0.0, 0.0, 0.0, 0.0, 0.0, 0.0, 0.0, 0.0, 0.0, 1.6522330225549426E9, 0.0, 2022-05-10 20:37:02.554
83.0, 0.0, 0.0, 0.0, 0.0, -8395.225810435511, 12498.201429629496, 0.0, 0.0, -0.242, -0.924, 0.302, 192.0, 0.0, 0.0, 0.0, 0.0, 0.0, 0.0, 0.0, 0.0, 0.0, 1.652233022554946E9, 0.0, 2022-05-10 20:37:02.554
84.0, 0.0, 0.0, 0.0, 0.0, -8400.165545960135, 12487.293778335308, 0.0, 0.0, -0.242, -0.924, 0.302, 192.0, 0.0, 0.0, 0.0, 0.0, 0.0, 0.0, 0.0, 0.0, 0.0, 1.6522330225549493E9, 0.0, 2022-05-10 20:37:02.554
85.0, 0.0, 0.0, 0.0, 0.0, -8427.278211984421, 12459.242339043896, 0.0, 0.0, -0.242, -0.924, 0.302, 192.0, 0.0, 0.0, 0.0, 0.0, 0.0, 0.0, 0.0, 0.0, 0.0, 1.6522330225549524E9, 0.0, 2022-05-10 20:37:02.554
86.0, 0.0, 0.0, 0.0, 0.0, -8512.34895138132, 12389.59430332116, 0.0, 0.0, -0.242, -0.924, 0.302, 192.0, 0.0, 0.0, 0.0, 0.0, 0.0, 0.0, 0.0, 0.0, 0.0, 1.6522330225549572E9, 0.0, 2022-05-10 20:37:02.554
87.0, 0.0, 0.0, 0.0, 0.0, -8541.45092266213, 12367.0190414213, 0.0, 0.0, -0.23800000000000002, -0.92, 0.312, 192.0, 248.0, 144.0, 227.0, 64.0, 9.0, 192.0, 0.0, 0.0, 0.0, 1.6522330225549603E9, 0.0, 2022-05-10 20:37:02.554
88.0, 0.0, 0.0, 0.0, 0.0, -8549.54225415495, 12366.97433793239, 0.0, 0.0, -0.23800000000000002, -0.92, 0.312, 192.0, 0.0, 0.0, 0.0, 0.0, 0.0, 0.0, 0.0, 0.0, 0.0, 1.652233022554963E9, 0.0, 2022-05-10 20:37:02.554
89.0, 0.0, 0.0, 0.0, 0.0, -8555.867797835803, 12352.44570403644, 0.0, 0.0, -0.23800000000000002, -0.92, 0.312, 192.0, 0.0, 0.0, 0.0, 0.0, 0.0, 0.0, 0.0, 0.0, 0.0, 1.6522330225549667E9, 0.0, 2022-05-10 20:37:02.554
90.0, 0.0, 0.0, 0.0, 0.0, -8624.331191102408, 12289.838467817124, 0.0, 0.0, -0.23800000000000002, -0.92, 0.312, 192.0, 0.0, 0.0, 0.0, 0.0, 0.0, 0.0, 0.0, 0.0, 0.0, 1.65223302255497E9, 0.0, 2022-05-10 20:37:02.554
91.0, 0.0, 0.0, 0.0, 0.0, -8668.47588640164, 12257.160217423465, 0.0, 0.0, -0.23800000000000002, -0.92, 0.312, 192.0, 0.0, 0.0, 0.0, 0.0, 0.0, 0.0, 0.0, 0.0, 0.0, 1.6522330225549731E9, 0.0, 2022-05-10 20:37:02.554
92.0, 0.0, 0.0, 0.0, 0.0, -8667.2465404566, 12259.350688380086, 0.0, 0.0, -0.23800000000000002, -0.92, 0.312, 192.0, 0.0, 0.0, 0.0, 0.0, 0.0, 0.0, 0.0, 0.0, 0.0, 1.6522330225549767E9, 0.0, 2022-05-10 20:37:02.554
93.0, 0.0, 0.0, 0.0, 0.0, -8681.797526097003, 12252.846330743592, 0.0, 0.0, -0.23800000000000002, -0.92, 0.312, 192.0, 0.0, 0.0, 0.0, 0.0, 0.0, 0.0, 0.0, 0.0, 0.0, 1.65223302255498E9, 0.0, 2022-05-10 20:37:02.554
94.0, 0.0, 0.0, 0.0, 0.0, -8750.193864130242, 12177.83387635158, 0.0, 0.0, -0.23800000000000002, -0.92, 0.312, 192.0, 0.0, 0.0, 0.0, 0.0, 0.0, 0.0, 0.0, 0.0, 0.0, 1.6522330225549831E9, 0.0, 2022-05-10 20:37:02.554
95.0, 0.0, 0.0, 0.0, 0.0, -8775.607797575927, 12147.256689936721, 0.0, 0.0, -0.23800000000000002, -0.92, 0.312, 192.0, 0.0, 0.0, 0.0, 0.0, 0.0, 0.0, 0.0, 0.0, 0.0, 1.6522330225549865E9, 0.0, 2022-05-10 20:37:02.554
96.0, 0.0, 0.0, 0.0, 0.0, -8784.101460468944, 12149.827140549081, 0.0, 0.0, -0.23800000000000002, -0.92, 0.312, 192.0, 0.0, 0.0, 0.0, 0.0, 0.0, 0.0, 0.0, 0.0, 0.0, 1.6522330225549903E9, 0.0, 2022-05-10 20:37:02.554
97.0, 0.0, 0.0, 0.0, 0.0, -8795.009111763133, 12136.684314809361, 0.0, 0.0, -0.232, -0.918, 0.316, 192.0, 248.0, 192.0, 227.0, 80.0, 9.0, 224.0, 0.0, 0.0, 0.0, 1.6522330225549936E9, 0.0, 2022-05-10 20:37:02.554
98.0, 0.0, 0.0, 0.0, 0.0, -8847.759228677658, 12083.129535094446, 0.0, 0.0, -0.232, -0.918, 0.316, 192.0, 0.0, 0.0, 0.0, 0.0, 0.0, 0.0, 0.0, 0.0, 0.0, 1.6522330225549967E9, 0.0, 2022-05-10 20:37:02.554
99.0, 0.0, 0.0, 0.0, 0.0, -8911.439348630827, 12036.459092671765, 0.0, 0.0, -0.232, -0.918, 0.316, 192.0, 0.0, 0.0, 0.0, 0.0, 0.0, 0.0, 0.0, 0.0, 0.0, 1.652233022555E9, 0.0, 2022-05-10 20:37:02.555
100.0, 0.0, 0.0, 0.0, 0.0, -8920.223584201764, 12033.262793214655, 0.0, 0.0, -0.232, -0.918, 0.316, 192.0, 0.0, 0.0, 0.0, 0.0, 0.0, 0.0, 0.0, 0.0, 0.0, 1.6522330225550032E9, 0.0, 2022-05-10 20:37:02.555
101.0, 0.0, 0.0, 0.0, 0.0, -8913.920392265367, 12036.257926971666, 0.0, 0.0, -0.232, -0.918, 0.316, 192.0, 0.0, 0.0, 0.0, 0.0, 0.0, 0.0, 0.0, 0.0, 0.0, 1.6522330225550065E9, 0.0, 2022-05-10 20:37:02.555
102.0, 0.0, 0.0, 0.0, 0.0, -8971.073802837587, 11976.869341953916, 0.0, 0.0, -0.232, -0.918, 0.316, 192.0, 0.0, 0.0, 0.0, 0.0, 0.0, 0.0, 0.0, 0.0, 0.0, 1.6522330225550098E9, 0.0, 2022-05-10 20:37:02.555
103.0, 0.0, 0.0, 0.0, 0.0, -9026.841405253579, 11916.474928435675, 0.0, 0.0, -0.232, -0.918, 0.316, 192.0, 0.0, 0.0, 0.0, 0.0, 0.0, 0.0, 0.0, 0.0, 0.0, 1.6522330225550132E9, 0.0, 2022-05-10 20:37:02.555
104.0, 0.0, 0.0, 0.0, 0.0, -9025.679114541903, 11914.060940034502, 0.0, 0.0, -0.232, -0.918, 0.316, 192.0, 0.0, 0.0, 0.0, 0.0, 0.0, 0.0, 0.0, 0.0, 0.0, 1.6522330225550177E9, 0.0, 2022-05-10 20:37:02.555
105.0, 0.0, 0.0, 0.0, 0.0, -9033.54692859017, 11905.12024225238, 0.0, 0.0, -0.232, -0.918, 0.316, 192.0, 0.0, 0.0, 0.0, 0.0, 0.0, 0.0, 0.0, 0.0, 0.0, 1.6522330225550206E9, 0.0, 2022-05-10 20:37:02.555
106.0, 0.0, 0.0, 0.0, 0.0, -9064.235873727308, 11874.87833200435, 0.0, 0.0, -0.232, -0.918, 0.316, 192.0, 0.0, 0.0, 0.0, 0.0, 0.0, 0.0, 0.0, 0.0, 0.0, 1.652233022555024E9, 0.0, 2022-05-10 20:37:02.555
107.0, 0.0, 0.0, 0.0, 0.0, -9145.350354355616, 11796.714281644141, 0.0, 0.0, -0.23800000000000002, -0.918, 0.318, 192.0, 248.0, 144.0, 227.0, 80.0, 9.0, 240.0, 0.0, 0.0, 0.0, 1.6522330225550356E9, 0.0, 2022-05-10 20:37:02.555
108.0, 0.0, 0.0, 0.0, 0.0, -9155.632156805057, 11783.794973348973, 0.0, 0.0, -0.23800000000000002, -0.918, 0.318, 192.0, 0.0, 0.0, 0.0, 0.0, 0.0, 0.0, 0.0, 0.0, 0.0, 1.6522330225550387E9, 0.0, 2022-05-10 20:37:02.555
109.0, 0.0, 0.0, 0.0, 0.0, -9165.332813898662, 11785.828982094406, 0.0, 0.0, -0.23800000000000002, -0.918, 0.318, 192.0, 0.0, 0.0, 0.0, 0.0, 0.0, 0.0, 0.0, 0.0, 0.0, 1.652233022555042E9, 0.0, 2022-05-10 20:37:02.555
110.0, 0.0, 0.0, 0.0, 0.0, -9183.951817029932, 11768.551083630453, 0.0, 0.0, -0.23800000000000002, -0.918, 0.318, 192.0, 0.0, 0.0, 0.0, 0.0, 0.0, 0.0, 0.0, 0.0, 0.0, 1.6522330225550451E9, 0.0, 2022-05-10 20:37:02.555
111.0, 0.0, 0.0, 0.0, 0.0, -9258.561940021747, 11710.660065491207, 0.0, 0.0, -0.23800000000000002, -0.918, 0.318, 192.0, 0.0, 0.0, 0.0, 0.0, 0.0, 0.0, 0.0, 0.0, 0.0, 1.6522330225550485E9, 0.0, 2022-05-10 20:37:02.555
112.0, 0.0, 0.0, 0.0, 0.0, -9275.750431507879, 11701.160574097703, 0.0, 0.0, -0.23800000000000002, -0.918, 0.318, 192.0, 0.0, 0.0, 0.0, 0.0, 0.0, 0.0, 0.0, 0.0, 0.0, 1.6522330225550516E9, 0.0, 2022-05-10 20:37:02.555
113.0, 0.0, 0.0, 0.0, 0.0, -9276.17511465253, 11702.166402598192, 0.0, 0.0, -0.23800000000000002, -0.918, 0.318, 192.0, 0.0, 0.0, 0.0, 0.0, 0.0, 0.0, 0.0, 0.0, 0.0, 1.652233022555055E9, 0.0, 2022-05-10 20:37:02.555
114.0, 0.0, 0.0, 0.0, 0.0, -9298.258638174371, 11684.061489589392, 0.0, 0.0, -0.23800000000000002, -0.918, 0.318, 192.0, 0.0, 0.0, 0.0, 0.0, 0.0, 0.0, 0.0, 0.0, 0.0, 1.652233022555058E9, 0.0, 2022-05-10 20:37:02.555
115.0, 0.0, 0.0, 0.0, 0.0, -9372.689947210545, 11604.310465372857, 0.0, 0.0, -0.23800000000000002, -0.918, 0.318, 192.0, 0.0, 0.0, 0.0, 0.0, 0.0, 0.0, 0.0, 0.0, 0.0, 1.652233022555061E9, 0.0, 2022-05-10 20:37:02.555
116.0, 0.0, 0.0, 0.0, 0.0, -9397.120403900195, 11572.950967902061, 0.0, 0.0, -0.23800000000000002, -0.918, 0.318, 192.0, 0.0, 0.0, 0.0, 0.0, 0.0, 0.0, 0.0, 0.0, 0.0, 1.6522330225550644E9, 0.0, 2022-05-10 20:37:02.555
117.0, 0.0, 0.0, 0.0, 0.0, -9405.323494115293, 11568.033584121893, 0.0, 0.0, -0.24, -0.916, 0.316, 192.0, 248.0, 128.0, 227.0, 96.0, 9.0, 224.0, 0.0, 0.0, 0.0, 1.6522330225550675E9, 0.0, 2022-05-10 20:37:02.555
118.0, 0.0, 0.0, 0.0, 0.0, -9409.324456372793, 11557.707078183543, 0.0, 0.0, -0.24, -0.916, 0.316, 192.0, 0.0, 0.0, 0.0, 0.0, 0.0, 0.0, 0.0, 0.0, 0.0, 1.6522330225550709E9, 0.0, 2022-05-10 20:37:02.555
119.0, 0.0, 0.0, 0.0, 0.0, -9467.72956463451, 11513.89765905114, 0.0, 0.0, -0.24, -0.916, 0.316, 192.0, 0.0, 0.0, 0.0, 0.0, 0.0, 0.0, 0.0, 0.0, 0.0, 1.652233022555074E9, 0.0, 2022-05-10 20:37:02.555
120.0, 0.0, 0.0, 0.0, 0.0, -9527.699295008098, 11459.828789213752, 0.0, 0.0, -0.24, -0.916, 0.316, 192.0, 0.0, 0.0, 0.0, 0.0, 0.0, 0.0, 0.0, 0.0, 0.0, 1.6522330225550776E9, 0.0, 2022-05-10 20:37:02.555
121.0, 0.0, 0.0, 0.0, 0.0, -9514.176489612639, 11465.103800905204, 0.0, 0.0, -0.24, -0.916, 0.316, 192.0, 0.0, 0.0, 0.0, 0.0, 0.0, 0.0, 0.0, 0.0, 0.0, 1.652233022555081E9, 0.0, 2022-05-10 20:37:02.555
122.0, 0.0, 0.0, 0.0, 0.0, -9523.921850195153, 11456.297213589814, 0.0, 0.0, -0.24, -0.916, 0.316, 192.0, 0.0, 0.0, 0.0, 0.0, 0.0, 0.0, 0.0, 0.0, 0.0, 1.6522330225550842E9, 0.0, 2022-05-10 20:37:02.555
123.0, 0.0, 0.0, 0.0, 0.0, -9578.191885732638, 11398.741471617399, 0.0, 0.0, -0.24, -0.916, 0.316, 192.0, 0.0, 0.0, 0.0, 0.0, 0.0, 0.0, 0.0, 0.0, 0.0, 1.652233022555087E9, 0.0, 2022-05-10 20:37:02.555
124.0, 0.0, 0.0, 0.0, 0.0, -9630.00322938004, 11355.110866440638, 0.0, 0.0, -0.24, -0.916, 0.316, 192.0, 0.0, 0.0, 0.0, 0.0, 0.0, 0.0, 0.0, 0.0, 0.0, 1.6522330225550907E9, 0.0, 2022-05-10 20:37:02.555
125.0, 0.0, 0.0, 0.0, 0.0, -9646.610575510333, 11338.883499966085, 0.0, 0.0, -0.24, -0.916, 0.316, 192.0, 0.0, 0.0, 0.0, 0.0, 0.0, 0.0, 0.0, 0.0, 0.0, 1.6522330225550942E9, 0.0, 2022-05-10 20:37:02.555
126.0, 0.0, 0.0, 0.0, 0.0, -9646.230595854593, 11331.797996973753, 0.0, 0.0, -0.24, -0.916, 0.316, 192.0, 0.0, 0.0, 0.0, 0.0, 0.0, 0.0, 0.0, 0.0, 0.0, 1.6522330225550973E9, 0.0, 2022-05-10 20:37:02.555
127.0, 0.0, 0.0, 0.0, 0.0, -9682.842753272385, 11288.99440634184, 0.0, 0.0, -0.242, -0.93, 0.312, 192.0, 248.0, 112.0, 226.0, 240.0, 9.0, 192.0, 0.0, 0.0, 0.0, 1.6522330225551007E9, 0.0, 2022-05-10 20:37:02.555
128.0, 0.0, 0.0, 0.0, 0.0, -9741.270213278558, 11233.673838814955, 0.0, 0.0, -0.242, -0.93, 0.312, 192.0, 0.0, 0.0, 0.0, 0.0, 0.0, 0.0, 0.0, 0.0, 0.0, 1.6522330225551045E9, 0.0, 2022-05-10 20:37:02.555
129.0, 0.0, 0.0, 0.0, 0.0, -9755.50827449659, 11221.425082853448, 0.0, 0.0, -0.242, -0.93, 0.312, 192.0, 0.0, 0.0, 0.0, 0.0, 0.0, 0.0, 0.0, 0.0, 0.0, 1.652233022555108E9, 0.0, 2022-05-10 20:37:02.555
130.0, 0.0, 0.0, 0.0, 0.0, -9758.346946042413, 11219.50283283029, 0.0, 0.0, -0.242, -0.93, 0.312, 192.0, 0.0, 0.0, 0.0, 0.0, 0.0, 0.0, 0.0, 0.0, 0.0, 1.6522330225551112E9, 0.0, 2022-05-10 20:37:02.555
131.0, 0.0, 0.0, 0.0, 0.0, -9794.333254615458, 11188.7915359487, 0.0, 0.0, -0.242, -0.93, 0.312, 192.0, 0.0, 0.0, 0.0, 0.0, 0.0, 0.0, 0.0, 0.0, 0.0, 1.6522330225551147E9, 0.0, 2022-05-10 20:37:02.555
132.0, 0.0, 0.0, 0.0, 0.0, -9877.928778878306, 11127.570107885613, 0.0, 0.0, -0.242, -0.93, 0.312, 192.0, 0.0, 0.0, 0.0, 0.0, 0.0, 0.0, 0.0, 0.0, 0.0, 1.6522330225551178E9, 0.0, 2022-05-10 20:37:02.555
133.0, 0.0, 0.0, 0.0, 0.0, -9883.203790569758, 11116.751863569245, 0.0, 0.0, -0.242, -0.93, 0.312, 192.0, 0.0, 0.0, 0.0, 0.0, 0.0, 0.0, 0.0, 0.0, 0.0, 1.652233022555122E9, 0.0, 2022-05-10 20:37:02.555
134.0, 0.0, 0.0, 0.0, 0.0, -9883.896694647872, 11102.871430262498, 0.0, 0.0, -0.242, -0.93, 0.312, 192.0, 0.0, 0.0, 0.0, 0.0, 0.0, 0.0, 0.0, 0.0, 0.0, 1.6522330225551257E9, 0.0, 2022-05-10 20:37:02.555
135.0, 0.0, 0.0, 0.0, 0.0, -9888.76937493913, 11087.381671354971, 0.0, 0.0, -0.242, -0.93, 0.312, 192.0, 0.0, 0.0, 0.0, 0.0, 0.0, 0.0, 0.0, 0.0, 0.0, 1.6522330225551293E9, 0.0, 2022-05-10 20:37:02.555
136.0, 0.0, 0.0, 0.0, 0.0, -9964.608843875987, 11036.263231785684, 0.0, 0.0, -0.242, -0.93, 0.312, 192.0, 0.0, 0.0, 0.0, 0.0, 0.0, 0.0, 0.0, 0.0, 0.0, 1.652233022555133E9, 0.0, 2022-05-10 20:37:02.555
137.0, 0.0, 0.0, 0.0, 0.0, -9992.704986656307, 11014.403225708393, 0.0, 0.0, -0.23800000000000002, -0.926, 0.302, 192.0, 248.0, 144.0, 227.0, 16.0, 9.0, 112.0, 0.0, 0.0, 0.0, 1.6522330225551379E9, 0.0, 2022-05-10 20:37:02.555
138.0, 0.0, 0.0, 0.0, 0.0, -9990.335701744045, 10998.041748767107, 0.0, 0.0, -0.23800000000000002, -0.926, 0.302, 192.0, 0.0, 0.0, 0.0, 0.0, 0.0, 0.0, 0.0, 0.0, 0.0, 1.6522330225551417E9, 0.0, 2022-05-10 20:37:02.555
139.0, 0.0, 0.0, 0.0, 0.0, -10005.02079785118, 10977.098164212486, 0.0, 0.0, -0.23800000000000002, -0.926, 0.302, 192.0, 0.0, 0.0, 0.0, 0.0, 0.0, 0.0, 0.0, 0.0, 0.0, 1.6522330225551448E9, 0.0, 2022-05-10 20:37:02.555
140.0, 0.0, 0.0, 0.0, 0.0, -10068.544455593164, 10915.787329171579, 0.0, 0.0, -0.23800000000000002, -0.926, 0.302, 192.0, 0.0, 0.0, 0.0, 0.0, 0.0, 0.0, 0.0, 0.0, 0.0, 1.652233022555148E9, 0.0, 2022-05-10 20:37:02.555
141.0, 0.0, 0.0, 0.0, 0.0, -10114.298476493177, 10877.878770575378, 0.0, 0.0, -0.23800000000000002, -0.926, 0.302, 192.0, 0.0, 0.0, 0.0, 0.0, 0.0, 0.0, 0.0, 0.0, 0.0, 1.6522330225551512E9, 0.0, 2022-05-10 20:37:02.555
142.0, 0.0, 0.0, 0.0, 0.0, -10117.025389316725, 10868.267520459596, 0.0, 0.0, -0.23800000000000002, -0.926, 0.302, 192.0, 0.0, 0.0, 0.0, 0.0, 0.0, 0.0, 0.0, 0.0, 0.0, 1.6522330225551555E9, 0.0, 2022-05-10 20:37:02.555
143.0, 0.0, 0.0, 0.0, 0.0, -10109.805775857662, 10867.373450681383, 0.0, 0.0, -0.23800000000000002, -0.926, 0.302, 192.0, 0.0, 0.0, 0.0, 0.0, 0.0, 0.0, 0.0, 0.0, 0.0, 1.652233022555159E9, 0.0, 2022-05-10 20:37:02.555
144.0, 0.0, 0.0, 0.0, 0.0, -10169.3508230866, 10817.350246590406, 0.0, 0.0, -0.23800000000000002, -0.926, 0.302, 192.0, 0.0, 0.0, 0.0, 0.0, 0.0, 0.0, 0.0, 0.0, 0.0, 1.6522330225551622E9, 0.0, 2022-05-10 20:37:02.555
145.0, 0.0, 0.0, 0.0, 0.0, -10232.06981802819, 10751.323193469429, 0.0, 0.0, -0.23800000000000002, -0.926, 0.302, 192.0, 0.0, 0.0, 0.0, 0.0, 0.0, 0.0, 0.0, 0.0, 0.0, 1.6522330230359693E9, 0.0, 2022-05-10 20:37:03.035
146.0, 0.0, 0.0, 0.0, 0.0, -10238.30595473122, 10748.752742857068, 0.0, 0.0, -0.23800000000000002, -0.926, 0.302, 192.0, 0.0, 0.0, 0.0, 0.0, 0.0, 0.0, 0.0, 0.0, 0.0, 1.6522330230359948E9, 0.0, 2022-05-10 20:37:03.035
147.0, 0.0, 0.0, 0.0, 0.0, -10244.095056545146, 10745.355277699862, 0.0, 0.0, -0.25, -0.92, 0.3, 192.0, 248.0, 48.0, 227.0, 64.0, 9.0, 96.0, 0.0, 0.0, 0.0, 1.6522330230360544E9, 0.0, 2022-05-10 20:37:03.036
148.0, 0.0, 0.0, 0.0, 0.0, -10279.32140580671, 10707.759643526035, 0.0, 0.0, -0.25, -0.92, 0.3, 192.0, 0.0, 0.0, 0.0, 0.0, 0.0, 0.0, 0.0, 0.0, 0.0, 1.6522330230361552E9, 0.0, 2022-05-10 20:37:03.036
149.0, 0.0, 0.0, 0.0, 0.0, -10323.622563317129, 10668.241759329052, 0.0, 0.0, -0.25, -0.92, 0.3, 192.0, 0.0, 0.0, 0.0, 0.0, 0.0, 0.0, 0.0, 0.0, 0.0, 1.6522330230361588E9, 0.0, 2022-05-10 20:37:03.036
150.0, 0.0, 0.0, 0.0, 0.0, -10338.70999082446, 10650.20390155362, 0.0, 0.0, -0.25, -0.92, 0.3, 192.0, 0.0, 0.0, 0.0, 0.0, 0.0, 0.0, 0.0, 0.0, 0.0, 1.6522330230361621E9, 0.0, 2022-05-10 20:37:03.036
151.0, 0.0, 0.0, 0.0, 0.0, -10341.861586792658, 10638.044552569932, 0.0, 0.0, -0.25, -0.92, 0.3, 192.0, 0.0, 0.0, 0.0, 0.0, 0.0, 0.0, 0.0, 0.0, 0.0, 1.6522330230361652E9, 0.0, 2022-05-10 20:37:03.036
152.0, 0.0, 0.0, 0.0, 0.0, -10370.896502840103, 10602.90761028619, 0.0, 0.0, -0.25, -0.92, 0.3, 192.0, 0.0, 0.0, 0.0, 0.0, 0.0, 0.0, 0.0, 0.0, 0.0, 1.6522330230361683E9, 0.0, 2022-05-10 20:37:03.036
153.0, 0.0, 0.0, 0.0, 0.0, -10434.666029771093, 10542.289679323398, 0.0, 0.0, -0.25, -0.92, 0.3, 192.0, 0.0, 0.0, 0.0, 0.0, 0.0, 0.0, 0.0, 0.0, 0.0, 1.6522330230361717E9, 0.0, 2022-05-10 20:37:03.036
154.0, 0.0, 0.0, 0.0, 0.0, -10449.753457278426, 10537.75227519897, 0.0, 0.0, -0.25, -0.92, 0.3, 192.0, 0.0, 0.0, 0.0, 0.0, 0.0, 0.0, 0.0, 0.0, 0.0, 1.6522330230361748E9, 0.0, 2022-05-10 20:37:03.036
155.0, 0.0, 0.0, 0.0, 0.0, -10448.524111333385, 10531.829062918314, 0.0, 0.0, -0.25, -0.92, 0.3, 192.0, 0.0, 0.0, 0.0, 0.0, 0.0, 0.0, 0.0, 0.0, 0.0, 1.652233023036178E9, 0.0, 2022-05-10 20:37:03.036
156.0, 0.0, 0.0, 0.0, 0.0, -10464.885588274668, 10506.0798533058, 0.0, 0.0, -0.252, -0.916, 0.306, 192.0, 248.0, 32.0, 227.0, 96.0, 9.0, 144.0, 0.0, 0.0, 0.0, 1.6522330230361812E9, 0.0, 2022-05-10 20:37:03.036
157.0, 0.0, 0.0, 0.0, 0.0, -10532.857243163258, 10447.07124794379, 0.0, 0.0, -0.252, -0.916, 0.306, 192.0, 0.0, 0.0, 0.0, 0.0, 0.0, 0.0, 0.0, 0.0, 0.0, 1.6522330230361843E9, 0.0, 2022-05-10 20:37:03.036
158.0, 0.0, 0.0, 0.0, 0.0, -10560.61810977675, 10425.546518033329, 0.0, 0.0, -0.252, -0.916, 0.306, 192.0, 0.0, 0.0, 0.0, 0.0, 0.0, 0.0, 0.0, 0.0, 0.0, 1.6522330230361876E9, 0.0, 2022-05-10 20:37:03.036
159.0, 0.0, 0.0, 0.0, 0.0, -10572.03985119341, 10413.744796960926, 0.0, 0.0, -0.252, -0.916, 0.306, 192.0, 0.0, 0.0, 0.0, 0.0, 0.0, 0.0, 0.0, 0.0, 0.0, 1.6522330230361905E9, 0.0, 2022-05-10 20:37:03.036
160.0, 0.0, 0.0, 0.0, 0.0, -10592.514049114472, 10389.001415848901, 0.0, 0.0, -0.252, -0.916, 0.306, 192.0, 0.0, 0.0, 0.0, 0.0, 0.0, 0.0, 0.0, 0.0, 0.0, 1.652233023036194E9, 0.0, 2022-05-10 20:37:03.036
161.0, 0.0, 0.0, 0.0, 0.0, -10646.9628986076, 10331.84800527668, 0.0, 0.0, -0.252, -0.916, 0.306, 192.0, 0.0, 0.0, 0.0, 0.0, 0.0, 0.0, 0.0, 0.0, 0.0, 1.652233023036197E9, 0.0, 2022-05-10 20:37:03.036
162.0, 0.0, 0.0, 0.0, 0.0, -10663.123209848787, 10307.574010798218, 0.0, 0.0, -0.252, -0.916, 0.306, 192.0, 0.0, 0.0, 0.0, 0.0, 0.0, 0.0, 0.0, 0.0, 0.0, 1.6522330230362E9, 0.0, 2022-05-10 20:37:03.036
163.0, 0.0, 0.0, 0.0, 0.0, -10677.607140255826, 10296.353435081654, 0.0, 0.0, -0.252, -0.916, 0.306, 192.0, 0.0, 0.0, 0.0, 0.0, 0.0, 0.0, 0.0, 0.0, 0.0, 1.6522330230362031E9, 0.0, 2022-05-10 20:37:03.036
164.0, 0.0, 0.0, 0.0, 0.0, -10698.863649232824, 10281.623635485606, 0.0, 0.0, -0.252, -0.916, 0.306, 192.0, 0.0, 0.0, 0.0, 0.0, 0.0, 0.0, 0.0, 0.0, 0.0, 1.6522330230362065E9, 0.0, 2022-05-10 20:37:03.036
165.0, 0.0, 0.0, 0.0, 0.0, -10750.339716713395, 10236.227242496878, 0.0, 0.0, -0.252, -0.916, 0.306, 192.0, 0.0, 0.0, 0.0, 0.0, 0.0, 0.0, 0.0, 0.0, 0.0, 1.6522330230362096E9, 0.0, 2022-05-10 20:37:03.036
166.0, 0.0, 0.0, 0.0, 0.0, -10773.9431588582, 10212.40028290752, 0.0, 0.0, -0.254, -0.92, 0.308, 192.0, 248.0, 16.0, 227.0, 64.0, 9.0, 160.0, 0.0, 0.0, 0.0, 1.652233023036213E9, 0.0, 2022-05-10 20:37:03.036
167.0, 0.0, 0.0, 0.0, 0.0, -10775.396022247794, 10206.96880900488, 0.0, 0.0, -0.254, -0.92, 0.308, 192.0, 0.0, 0.0, 0.0, 0.0, 0.0, 0.0, 0.0, 0.0, 0.0, 1.6522330230362163E9, 0.0, 2022-05-10 20:37:03.036
168.0, 0.0, 0.0, 0.0, 0.0, -10777.362975759861, 10201.179707190957, 0.0, 0.0, -0.254, -0.92, 0.308, 192.0, 0.0, 0.0, 0.0, 0.0, 0.0, 0.0, 0.0, 0.0, 0.0, 1.6522330230362191E9, 0.0, 2022-05-10 20:37:03.036
169.0, 0.0, 0.0, 0.0, 0.0, -10834.359924120894, 10148.72016295435, 0.0, 0.0, -0.254, -0.92, 0.308, 192.0, 0.0, 0.0, 0.0, 0.0, 0.0, 0.0, 0.0, 0.0, 0.0, 1.6522330230362225E9, 0.0, 2022-05-10 20:37:03.036
170.0, 0.0, 0.0, 0.0, 0.0, -10890.708671892724, 10095.299493706167, 0.0, 0.0, -0.254, -0.92, 0.308, 192.0, 0.0, 0.0, 0.0, 0.0, 0.0, 0.0, 0.0, 0.0, 0.0, 1.6522330230362258E9, 0.0, 2022-05-10 20:37:03.036
171.0, 0.0, 0.0, 0.0, 0.0, -10898.800003385544, 10086.649368601962, 0.0, 0.0, -0.254, -0.92, 0.308, 192.0, 0.0, 0.0, 0.0, 0.0, 0.0, 0.0, 0.0, 0.0, 0.0, 1.6522330230362291E9, 0.0, 2022-05-10 20:37:03.036
172.0, 0.0, 0.0, 0.0, 0.0, -10903.762090654624, 10073.104211462047, 0.0, 0.0, -0.254, -0.92, 0.308, 192.0, 0.0, 0.0, 0.0, 0.0, 0.0, 0.0, 0.0, 0.0, 0.0, 1.6522330230362325E9, 0.0, 2022-05-10 20:37:03.036
173.0, 0.0, 0.0, 0.0, 0.0, -10947.035067920098, 10024.310353316112, 0.0, 0.0, -0.254, -0.92, 0.308, 192.0, 0.0, 0.0, 0.0, 0.0, 0.0, 0.0, 0.0, 0.0, 0.0, 1.6522330230362356E9, 0.0, 2022-05-10 20:37:03.036
174.0, 0.0, 0.0, 0.0, 0.0, -11005.954266304287, 9973.68365212484, 0.0, 0.0, -0.254, -0.92, 0.308, 192.0, 0.0, 0.0, 0.0, 0.0, 0.0, 0.0, 0.0, 0.0, 0.0, 1.652233023036239E9, 0.0, 2022-05-10 20:37:03.036
175.0, 0.0, 0.0, 0.0, 0.0, -11005.149603503896, 9974.30950096959, 0.0, 0.0, -0.254, -0.92, 0.308, 192.0, 0.0, 0.0, 0.0, 0.0, 0.0, 0.0, 0.0, 0.0, 0.0, 1.652233023036242E9, 0.0, 2022-05-10 20:37:03.036
176.0, 0.0, 0.0, 0.0, 0.0, -11000.835716824022, 9972.722527113263, 0.0, 0.0, -0.248, -0.922, 0.306, 192.0, 248.0, 64.0, 227.0, 48.0, 9.0, 144.0, 0.0, 0.0, 0.0, 1.652233023036245E9, 0.0, 2022-05-10 20:37:03.036
177.0, 0.0, 0.0, 0.0, 0.0, -11024.70737990229, 9944.514625610665, 0.0, 0.0, -0.248, -0.922, 0.306, 192.0, 0.0, 0.0, 0.0, 0.0, 0.0, 0.0, 0.0, 0.0, 0.0, 1.6522330230362482E9, 0.0, 2022-05-10 20:37:03.036
178.0, 0.0, 0.0, 0.0, 0.0, -11095.987092970265, 9880.678043446309, 0.0, 0.0, -0.248, -0.922, 0.306, 192.0, 0.0, 0.0, 0.0, 0.0, 0.0, 0.0, 0.0, 0.0, 0.0, 1.6522330230362513E9, 0.0, 2022-05-10 20:37:03.036
179.0, 0.0, 0.0, 0.0, 0.0, -11121.937468282875, 9868.094011317971, 0.0, 0.0, -0.248, -0.922, 0.306, 192.0, 0.0, 0.0, 0.0, 0.0, 0.0, 0.0, 0.0, 0.0, 0.0, 1.6522330230362544E9, 0.0, 2022-05-10 20:37:03.036
180.0, 0.0, 0.0, 0.0, 0.0, -11120.574011871102, 9859.153313535848, 0.0, 0.0, -0.248, -0.922, 0.306, 192.0, 0.0, 0.0, 0.0, 0.0, 0.0, 0.0, 0.0, 0.0, 0.0, 1.6522330230362575E9, 0.0, 2022-05-10 20:37:03.036
181.0, 0.0, 0.0, 0.0, 0.0, -11141.048209792163, 9831.079522499982, 0.0, 0.0, -0.248, -0.922, 0.306, 192.0, 0.0, 0.0, 0.0, 0.0, 0.0, 0.0, 0.0, 0.0, 0.0, 1.6522330230362608E9, 0.0, 2022-05-10 20:37:03.036
182.0, 0.0, 0.0, 0.0, 0.0, -11213.065530427162, 9767.511161269089, 0.0, 0.0, -0.248, -0.922, 0.306, 192.0, 0.0, 0.0, 0.0, 0.0, 0.0, 0.0, 0.0, 0.0, 0.0, 1.652233023036264E9, 0.0, 2022-05-10 20:37:03.036
183.0, 0.0, 0.0, 0.0, 0.0, -11234.07617021515, 9742.521910968055, 0.0, 0.0, -0.248, -0.922, 0.306, 192.0, 0.0, 0.0, 0.0, 0.0, 0.0, 0.0, 0.0, 0.0, 0.0, 1.652233023036267E9, 0.0, 2022-05-10 20:37:03.036
184.0, 0.0, 0.0, 0.0, 0.0, -11242.74864706381, 9732.798902129996, 0.0, 0.0, -0.248, -0.922, 0.306, 192.0, 0.0, 0.0, 0.0, 0.0, 0.0, 0.0, 0.0, 0.0, 0.0, 1.6522330230362701E9, 0.0, 2022-05-10 20:37:03.036
185.0, 0.0, 0.0, 0.0, 0.0, -11262.954624051408, 9709.329570451924, 0.0, 0.0, -0.248, -0.922, 0.306, 192.0, 0.0, 0.0, 0.0, 0.0, 0.0, 0.0, 0.0, 0.0, 0.0, 1.6522330230362735E9, 0.0, 2022-05-10 20:37:03.036
186.0, 0.0, 0.0, 0.0, 0.0, -11285.820458629187, 9691.783451054509, 0.0, 0.0, -0.246, -0.932, 0.298, 192.0, 248.0, 80.0, 226.0, 224.0, 9.0, 80.0, 0.0, 0.0, 0.0, 1.6522330230362766E9, 0.0, 2022-05-10 20:37:03.036
187.0, 0.0, 0.0, 0.0, 0.0, -11281.28305450476, 9701.886439548307, 0.0, 0.0, -0.246, -0.932, 0.298, 192.0, 0.0, 0.0, 0.0, 0.0, 0.0, 0.0, 0.0, 0.0, 0.0, 1.6522330230362797E9, 0.0, 2022-05-10 20:37:03.036
188.0, 0.0, 0.0, 0.0, 0.0, -11289.6649586755, 9683.379195139312, 0.0, 0.0, -0.246, -0.932, 0.298, 192.0, 0.0, 0.0, 0.0, 0.0, 0.0, 0.0, 0.0, 0.0, 0.0, 1.6522330230362828E9, 0.0, 2022-05-10 20:37:03.036
189.0, 0.0, 0.0, 0.0, 0.0, -11304.461813504913, 9618.939115874662, 0.0, 0.0, -0.246, -0.932, 0.298, 192.0, 0.0, 0.0, 0.0, 0.0, 0.0, 0.0, 0.0, 0.0, 0.0, 1.6522330230362864E9, 0.0, 2022-05-10 20:37:03.036
190.0, 0.0, 0.0, 0.0, 0.0, -11341.118674411617, 9533.533100310935, 0.0, 0.0, -0.246, -0.932, 0.298, 192.0, 0.0, 0.0, 0.0, 0.0, 0.0, 0.0, 0.0, 0.0, 0.0, 1.6522330230362897E9, 0.0, 2022-05-10 20:37:03.036
191.0, 0.0, 0.0, 0.0, 0.0, -11370.712384070443, 9464.846189599775, 0.0, 0.0, -0.246, -0.932, 0.298, 192.0, 0.0, 0.0, 0.0, 0.0, 0.0, 0.0, 0.0, 0.0, 0.0, 1.6522330230362926E9, 0.0, 2022-05-10 20:37:03.036
192.0, 0.0, 0.0, 0.0, 0.0, -11349.120598926616, 9446.361296935236, 0.0, 0.0, -0.246, -0.932, 0.298, 192.0, 0.0, 0.0, 0.0, 0.0, 0.0, 0.0, 0.0, 0.0, 0.0, 1.6522330230362964E9, 0.0, 2022-05-10 20:37:03.036
193.0, 0.0, 0.0, 0.0, 0.0, -11319.5715927567, 9416.991104720963, 0.0, 0.0, -0.246, -0.932, 0.298, 192.0, 0.0, 0.0, 0.0, 0.0, 0.0, 0.0, 0.0, 0.0, 0.0, 1.6522330230362997E9, 0.0, 2022-05-10 20:37:03.036
194.0, 0.0, 0.0, 0.0, 0.0, -11344.158511657539, 9327.539423410824, 0.0, 0.0, -0.246, -0.932, 0.298, 192.0, 0.0, 0.0, 0.0, 0.0, 0.0, 0.0, 0.0, 0.0, 0.0, 1.6522330230363026E9, 0.0, 2022-05-10 20:37:03.036
195.0, 0.0, 0.0, 0.0, 0.0, -11364.051564222762, 9232.812730409232, 0.0, 0.0, -0.246, -0.932, 0.298, 192.0, 0.0, 0.0, 0.0, 0.0, 0.0, 0.0, 0.0, 0.0, 0.0, 1.6522330230363057E9, 0.0, 2022-05-10 20:37:03.036
196.0, 0.0, 0.0, 0.0, 0.0, -11349.545282071267, 9180.48729663936, 0.0, 0.0, -0.234, -0.934, 0.302, 192.0, 248.0, 176.0, 226.0, 208.0, 9.0, 112.0, 0.0, 0.0, 0.0, 1.6522330230363088E9, 0.0, 2022-05-10 20:37:03.036
197.0, 0.0, 0.0, 0.0, 0.0, -11324.690142236966, 9151.273566636273, 0.0, 0.0, -0.234, -0.934, 0.302, 192.0, 0.0, 0.0, 0.0, 0.0, 0.0, 0.0, 0.0, 0.0, 0.0, 1.652233023036312E9, 0.0, 2022-05-10 20:37:03.036
198.0, 0.0, 0.0, 0.0, 0.0, -11324.444273047957, 9085.51473444876, 0.0, 0.0, -0.234, -0.934, 0.302, 192.0, 0.0, 0.0, 0.0, 0.0, 0.0, 0.0, 0.0, 0.0, 0.0, 1.6522330230363152E9, 0.0, 2022-05-10 20:37:03.036
199.0, 0.0, 0.0, 0.0, 0.0, -11365.34796540117, 8963.518913211694, 0.0, 0.0, -0.234, -0.934, 0.302, 192.0, 0.0, 0.0, 0.0, 0.0, 0.0, 0.0, 0.0, 0.0, 0.0, 1.6522330230363183E9, 0.0, 2022-05-10 20:37:03.036
200.0, 0.0, 0.0, 0.0, 0.0, -11339.464645321923, 8914.300371921108, 0.0, 0.0, -0.234, -0.934, 0.302, 192.0, 0.0, 0.0, 0.0, 0.0, 0.0, 0.0, 0.0, 0.0, 0.0, 1.6522330230363212E9, 0.0, 2022-05-10 20:37:03.036
201.0, 0.0, 0.0, 0.0, 0.0, -11298.158621568517, 8888.752328008692, 0.0, 0.0, -0.234, -0.934, 0.302, 192.0, 0.0, 0.0, 0.0, 0.0, 0.0, 0.0, 0.0, 0.0, 0.0, 1.6522330230363245E9, 0.0, 2022-05-10 20:37:03.036
202.0, 0.0, 0.0, 0.0, 0.0, -11298.203325057428, 8817.830242852002, 0.0, 0.0, -0.234, -0.934, 0.302, 192.0, 0.0, 0.0, 0.0, 0.0, 0.0, 0.0, 0.0, 0.0, 0.0, 1.6522330230363276E9, 0.0, 2022-05-10 20:37:03.036
203.0, 0.0, 0.0, 0.0, 0.0, -11336.424808076003, 8715.705122435704, 0.0, 0.0, -0.234, -0.934, 0.302, 192.0, 0.0, 0.0, 0.0, 0.0, 0.0, 0.0, 0.0, 0.0, 0.0, 1.6522330230363307E9, 0.0, 2022-05-10 20:37:03.036
204.0, 0.0, 0.0, 0.0, 0.0, -11322.76789221381, 8668.85586605738, 0.0, 0.0, -0.234, -0.934, 0.302, 192.0, 0.0, 0.0, 0.0, 0.0, 0.0, 0.0, 0.0, 0.0, 0.0, 1.6522330230363345E9, 0.0, 2022-05-10 20:37:03.036
205.0, 0.0, 0.0, 0.0, 0.0, -11301.62314195909, 8623.99591493558, 0.0, 0.0, -0.234, -0.934, 0.302, 192.0, 0.0, 0.0, 0.0, 0.0, 0.0, 0.0, 0.0, 0.0, 0.0, 1.6522330230363379E9, 0.0, 2022-05-10 20:37:03.036
206.0, 0.0, 0.0, 0.0, 0.0, -11285.440478973447, 8570.50819045403, 0.0, 0.0, -0.22, -0.928, 0.302, 192.0, 249.0, 32.0, 227.0, 0.0, 9.0, 112.0, 0.0, 0.0, 0.0, 1.6522330230363407E9, 0.0, 2022-05-10 20:37:03.036
207.0, 0.0, 0.0, 0.0, 0.0, -11319.973924156897, 8481.235323099532, 0.0, 0.0, -0.22, -0.928, 0.302, 192.0, 0.0, 0.0, 0.0, 0.0, 0.0, 0.0, 0.0, 0.0, 0.0, 1.652233023036344E9, 0.0, 2022-05-10 20:37:03.036
208.0, 0.0, 0.0, 0.0, 0.0, -11330.38983707307, 8423.14313926019, 0.0, 0.0, -0.22, -0.928, 0.302, 192.0, 0.0, 0.0, 0.0, 0.0, 0.0, 0.0, 0.0, 0.0, 0.0, 1.6522330230363472E9, 0.0, 2022-05-10 20:37:03.036
209.0, 0.0, 0.0, 0.0, 0.0, -11322.320857324703, 8390.28607491089, 0.0, 0.0, -0.22, -0.928, 0.302, 192.0, 0.0, 0.0, 0.0, 0.0, 0.0, 0.0, 0.0, 0.0, 0.0, 1.6522330230363505E9, 0.0, 2022-05-10 20:37:03.036
210.0, 0.0, 0.0, 0.0, 0.0, -11292.525981965779, 8377.567932315818, 0.0, 0.0, -0.22, -0.928, 0.302, 192.0, 0.0, 0.0, 0.0, 0.0, 0.0, 0.0, 0.0, 0.0, 0.0, 1.6522330230363533E9, 0.0, 2022-05-10 20:37:03.036
211.0, 0.0, 0.0, 0.0, 0.0, -11327.886441694074, 8314.983047840959, 0.0, 0.0, -0.22, -0.928, 0.302, 192.0, 0.0, 0.0, 0.0, 0.0, 0.0, 0.0, 0.0, 0.0, 0.0, 1.6522330230363567E9, 0.0, 2022-05-10 20:37:03.036
212.0, 0.0, 0.0, 0.0, 0.0, -11369.080706725206, 8255.773276778851, 0.0, 0.0, -0.22, -0.928, 0.302, 192.0, 0.0, 0.0, 0.0, 0.0, 0.0, 0.0, 0.0, 0.0, 0.0, 1.65223302303636E9, 0.0, 2022-05-10 20:37:03.036
213.0, 0.0, 0.0, 0.0, 0.0, -11382.178828976015, 8258.611948324675, 0.0, 0.0, -0.22, -0.928, 0.302, 192.0, 0.0, 0.0, 0.0, 0.0, 0.0, 0.0, 0.0, 0.0, 0.0, 1.6522330230363631E9, 0.0, 2022-05-10 20:37:03.036
214.0, 0.0, 0.0, 0.0, 0.0, -11375.026270750317, 8265.786858294829, 0.0, 0.0, -0.22, -0.928, 0.302, 192.0, 0.0, 0.0, 0.0, 0.0, 0.0, 0.0, 0.0, 0.0, 0.0, 1.6522330230363665E9, 0.0, 2022-05-10 20:37:03.036
215.0, 0.0, 0.0, 0.0, 0.0, -11421.07086432825, 8225.061979897258, 0.0, 0.0, -0.22, -0.928, 0.302, 192.0, 0.0, 0.0, 0.0, 0.0, 0.0, 0.0, 0.0, 0.0, 0.0, 1.6522330230363696E9, 0.0, 2022-05-10 20:37:03.036
216.0, 0.0, 0.0, 0.0, 0.0, -11484.236894158948, 8170.970758315416, 0.0, 0.0, -0.226, -0.926, 0.308, 192.0, 248.0, 240.0, 227.0, 16.0, 9.0, 160.0, 0.0, 0.0, 0.0, 1.652233023036373E9, 0.0, 2022-05-10 20:37:03.036
217.0, 0.0, 0.0, 0.0, 0.0, -11486.27090290438, 8164.220531489913, 0.0, 0.0, -0.226, -0.926, 0.308, 192.0, 0.0, 0.0, 0.0, 0.0, 0.0, 0.0, 0.0, 0.0, 0.0, 1.6522330230363758E9, 0.0, 2022-05-10 20:37:03.036
218.0, 0.0, 0.0, 0.0, 0.0, -11469.484742818446, 8167.193313502469, 0.0, 0.0, -0.226, -0.926, 0.308, 192.0, 0.0, 0.0, 0.0, 0.0, 0.0, 0.0, 0.0, 0.0, 0.0, 1.652233023036379E9, 0.0, 2022-05-10 20:37:03.036
219.0, 0.0, 0.0, 0.0, 0.0, -11508.779109570874, 8127.004876971827, 0.0, 0.0, -0.226, -0.926, 0.308, 192.0, 0.0, 0.0, 0.0, 0.0, 0.0, 0.0, 0.0, 0.0, 0.0, 1.652233023036382E9, 0.0, 2022-05-10 20:37:03.036
220.0, 0.0, 0.0, 0.0, 0.0, -11570.939310901083, 8073.36069027909, 0.0, 0.0, -0.226, -0.926, 0.308, 192.0, 0.0, 0.0, 0.0, 0.0, 0.0, 0.0, 0.0, 0.0, 0.0, 1.6522330230363853E9, 0.0, 2022-05-10 20:37:03.036
221.0, 0.0, 0.0, 0.0, 0.0, -11575.543770258877, 8076.266417058279, 0.0, 0.0, -0.226, -0.926, 0.308, 192.0, 0.0, 0.0, 0.0, 0.0, 0.0, 0.0, 0.0, 0.0, 0.0, 1.6522330230363884E9, 0.0, 2022-05-10 20:37:03.036
222.0, 0.0, 0.0, 0.0, 0.0, -11578.315386571336, 8067.102201831603, 0.0, 0.0, -0.226, -0.926, 0.308, 192.0, 0.0, 0.0, 0.0, 0.0, 0.0, 0.0, 0.0, 0.0, 0.0, 1.6522330230363915E9, 0.0, 2022-05-10 20:37:03.036
223.0, 0.0, 0.0, 0.0, 0.0, -11603.997540950482, 8030.40063743599, 0.0, 0.0, -0.226, -0.926, 0.308, 192.0, 0.0, 0.0, 0.0, 0.0, 0.0, 0.0, 0.0, 0.0, 0.0, 1.6522330230363948E9, 0.0, 2022-05-10 20:37:03.036
224.0, 0.0, 0.0, 0.0, 0.0, -11674.003204584504, 7963.233645347792, 0.0, 0.0, -0.226, -0.926, 0.308, 192.0, 0.0, 0.0, 0.0, 0.0, 0.0, 0.0, 0.0, 0.0, 0.0, 1.6522330230363984E9, 0.0, 2022-05-10 20:37:03.036
225.0, 0.0, 0.0, 0.0, 0.0, -11685.290835534435, 7954.114133610026, 0.0, 0.0, -0.226, -0.926, 0.308, 192.0, 0.0, 0.0, 0.0, 0.0, 0.0, 0.0, 0.0, 0.0, 0.0, 1.6522330230364015E9, 0.0, 2022-05-10 20:37:03.036
226.0, 0.0, 0.0, 0.0, 0.0, -11682.183943055146, 7953.845912676563, 0.0, 0.0, -0.24, -0.922, 0.31, 192.0, 248.0, 128.0, 227.0, 48.0, 9.0, 176.0, 0.0, 0.0, 0.0, 1.6522330230364048E9, 0.0, 2022-05-10 20:37:03.036
227.0, 0.0, 0.0, 0.0, 0.0, -11696.17613508417, 7933.103493822038, 0.0, 0.0, -0.24, -0.922, 0.31, 192.0, 0.0, 0.0, 0.0, 0.0, 0.0, 0.0, 0.0, 0.0, 0.0, 1.6522330230364077E9, 0.0, 2022-05-10 20:37:03.036
228.0, 0.0, 0.0, 0.0, 0.0, -11763.320775427912, 7865.444763355824, 0.0, 0.0, -0.24, -0.922, 0.31, 192.0, 0.0, 0.0, 0.0, 0.0, 0.0, 0.0, 0.0, 0.0, 0.0, 1.6522330230364108E9, 0.0, 2022-05-10 20:37:03.036
229.0, 0.0, 0.0, 0.0, 0.0, -11784.3314152159, 7850.022059681662, 0.0, 0.0, -0.24, -0.922, 0.31, 192.0, 0.0, 0.0, 0.0, 0.0, 0.0, 0.0, 0.0, 0.0, 0.0, 1.652233023036414E9, 0.0, 2022-05-10 20:37:03.036
230.0, 0.0, 0.0, 0.0, 0.0, -11780.173990747213, 7858.292205130126, 0.0, 0.0, -0.24, -0.922, 0.31, 192.0, 0.0, 0.0, 0.0, 0.0, 0.0, 0.0, 0.0, 0.0, 0.0, 1.6522330230364172E9, 0.0, 2022-05-10 20:37:03.036
231.0, 0.0, 0.0, 0.0, 0.0, -11791.126345530314, 7849.105638158994, 0.0, 0.0, -0.24, -0.922, 0.31, 192.0, 0.0, 0.0, 0.0, 0.0, 0.0, 0.0, 0.0, 0.0, 0.0, 1.6522330230364203E9, 0.0, 2022-05-10 20:37:03.036
232.0, 0.0, 0.0, 0.0, 0.0, -11864.48477083263, 7787.906561840363, 0.0, 0.0, -0.24, -0.922, 0.31, 192.0, 0.0, 0.0, 0.0, 0.0, 0.0, 0.0, 0.0, 0.0, 0.0, 1.6522330230364234E9, 0.0, 2022-05-10 20:37:03.036
233.0, 0.0, 0.0, 0.0, 0.0, -11888.870524033371, 7760.838599304986, 0.0, 0.0, -0.24, -0.922, 0.31, 192.0, 0.0, 0.0, 0.0, 0.0, 0.0, 0.0, 0.0, 0.0, 0.0, 1.6522330230364265E9, 0.0, 2022-05-10 20:37:03.036
234.0, 0.0, 0.0, 0.0, 0.0, -11884.10960246439, 7760.480971393701, 0.0, 0.0, -0.24, -0.922, 0.31, 192.0, 0.0, 0.0, 0.0, 0.0, 0.0, 0.0, 0.0, 0.0, 0.0, 1.6522330230364296E9, 0.0, 2022-05-10 20:37:03.036
235.0, 0.0, 0.0, 0.0, 0.0, -11889.608131600397, 7754.53540736859, 0.0, 0.0, -0.248, -0.924, 0.31, 192.0, 248.0, 64.0, 227.0, 32.0, 9.0, 176.0, 0.0, 0.0, 0.0, 1.6522330230364332E9, 0.0, 2022-05-10 20:37:03.036
236.0, 0.0, 0.0, 0.0, 0.0, -11940.771274658595, 7704.847479444442, 0.0, 0.0, -0.248, -0.924, 0.31, 192.0, 0.0, 0.0, 0.0, 0.0, 0.0, 0.0, 0.0, 0.0, 0.0, 1.652233023036436E9, 0.0, 2022-05-10 20:37:03.036
237.0, 0.0, 0.0, 0.0, 0.0, -11985.452411824754, 7662.535627190546, 0.0, 0.0, -0.248, -0.924, 0.31, 192.0, 0.0, 0.0, 0.0, 0.0, 0.0, 0.0, 0.0, 0.0, 0.0, 1.6522330230364394E9, 0.0, 2022-05-10 20:37:03.036
238.0, 0.0, 0.0, 0.0, 0.0, -12001.478612599209, 7642.486112414135, 0.0, 0.0, -0.248, -0.924, 0.31, 192.0, 0.0, 0.0, 0.0, 0.0, 0.0, 0.0, 0.0, 0.0, 0.0, 1.6522330230364425E9, 0.0, 2022-05-10 20:37:03.036
239.0, 0.0, 0.0, 0.0, 0.0, -11998.70699628675, 7637.680487356244, 0.0, 0.0, -0.248, -0.924, 0.31, 192.0, 0.0, 0.0, 0.0, 0.0, 0.0, 0.0, 0.0, 0.0, 0.0, 1.6522330230364456E9, 0.0, 2022-05-10 20:37:03.036
240.0, 0.0, 0.0, 0.0, 0.0, -12039.834206084515, 7599.704873526678, 0.0, 0.0, -0.248, -0.924, 0.31, 192.0, 0.0, 0.0, 0.0, 0.0, 0.0, 0.0, 0.0, 0.0, 0.0, 1.6522330230364487E9, 0.0, 2022-05-10 20:37:03.036
241.0, 0.0, 0.0, 0.0, 0.0, -12099.982750413747, 7549.659317691246, 0.0, 0.0, -0.248, -0.924, 0.31, 192.0, 0.0, 0.0, 0.0, 0.0, 0.0, 0.0, 0.0, 0.0, 0.0, 1.6522330230364518E9, 0.0, 2022-05-10 20:37:03.036
242.0, 0.0, 0.0, 0.0, 0.0, -12104.743671982727, 7538.326983252405, 0.0, 0.0, -0.248, -0.924, 0.31, 192.0, 0.0, 0.0, 0.0, 0.0, 0.0, 0.0, 0.0, 0.0, 0.0, 1.652233023036455E9, 0.0, 2022-05-10 20:37:03.036
243.0, 0.0, 0.0, 0.0, 0.0, -12100.653302747405, 7539.846901875366, 0.0, 0.0, -0.248, -0.924, 0.31, 192.0, 0.0, 0.0, 0.0, 0.0, 0.0, 0.0, 0.0, 0.0, 0.0, 1.652233023036458E9, 0.0, 2022-05-10 20:37:03.036
244.0, 0.0, 0.0, 0.0, 0.0, -12130.381122872965, 7506.565154381413, 0.0, 0.0, -0.248, -0.924, 0.31, 192.0, 0.0, 0.0, 0.0, 0.0, 0.0, 0.0, 0.0, 0.0, 0.0, 1.652233023036461E9, 0.0, 2022-05-10 20:37:03.036
245.0, 0.0, 0.0, 0.0, 0.0, -12187.154553789444, 7458.575959035869, 0.0, 0.0, -0.242, -0.924, 0.312, 192.0, 248.0, 112.0, 227.0, 32.0, 9.0, 192.0, 0.0, 0.0, 0.0, 1.6522330230364645E9, 0.0, 2022-05-10 20:37:03.036
246.0, 0.0, 0.0, 0.0, 0.0, -12199.716234173327, 7445.276671084961, 0.0, 0.0, -0.242, -0.924, 0.312, 192.0, 0.0, 0.0, 0.0, 0.0, 0.0, 0.0, 0.0, 0.0, 0.0, 1.6522330230364676E9, 0.0, 2022-05-10 20:37:03.036
247.0, 0.0, 0.0, 0.0, 0.0, -12199.246847539765, 7435.173682591162, 0.0, 0.0, -0.242, -0.924, 0.312, 192.0, 0.0, 0.0, 0.0, 0.0, 0.0, 0.0, 0.0, 0.0, 0.0, 1.652233023036471E9, 0.0, 2022-05-10 20:37:03.036
248.0, 0.0, 0.0, 0.0, 0.0, -12221.017446639235, 7413.939525358621, 0.0, 0.0, -0.242, -0.924, 0.312, 192.0, 0.0, 0.0, 0.0, 0.0, 0.0, 0.0, 0.0, 0.0, 0.0, 1.652233023036474E9, 0.0, 2022-05-10 20:37:03.036
249.0, 0.0, 0.0, 0.0, 0.0, -12285.323415437153, 7351.779324028412, 0.0, 0.0, -0.242, -0.924, 0.312, 192.0, 0.0, 0.0, 0.0, 0.0, 0.0, 0.0, 0.0, 0.0, 0.0, 1.652233023036477E9, 0.0, 2022-05-10 20:37:03.036
250.0, 0.0, 0.0, 0.0, 0.0, -12294.062947519178, 7344.626765802714, 0.0, 0.0, -0.242, -0.924, 0.312, 192.0, 0.0, 0.0, 0.0, 0.0, 0.0, 0.0, 0.0, 0.0, 0.0, 1.6522330230364804E9, 0.0, 2022-05-10 20:37:03.036
251.0, 0.0, 0.0, 0.0, 0.0, -12300.924933066957, 7335.842530231778, 0.0, 0.0, -0.242, -0.924, 0.312, 192.0, 0.0, 0.0, 0.0, 0.0, 0.0, 0.0, 0.0, 0.0, 0.0, 1.6522330230364833E9, 0.0, 2022-05-10 20:37:03.036
252.0, 0.0, 0.0, 0.0, 0.0, -12315.721787896371, 7320.062198646331, 0.0, 0.0, -0.242, -0.924, 0.312, 192.0, 0.0, 0.0, 0.0, 0.0, 0.0, 0.0, 0.0, 0.0, 0.0, 1.6522330230364866E9, 0.0, 2022-05-10 20:37:03.036
253.0, 0.0, 0.0, 0.0, 0.0, -12381.368861361607, 7261.277110728874, 0.0, 0.0, -0.242, -0.924, 0.312, 192.0, 0.0, 0.0, 0.0, 0.0, 0.0, 0.0, 0.0, 0.0, 0.0, 1.6522330230364895E9, 0.0, 2022-05-10 20:37:03.036
254.0, 0.0, 0.0, 0.0, 0.0, -12407.40864365204, 7236.310212172296, 0.0, 0.0, -0.242, -0.924, 0.312, 192.0, 0.0, 0.0, 0.0, 0.0, 0.0, 0.0, 0.0, 0.0, 0.0, 1.6522330230364928E9, 0.0, 2022-05-10 20:37:03.036
255.0, 0.0, 0.0, 0.0, 0.0, -12411.74488207637, 7230.610517336192, 0.0, 0.0, -0.242, -0.924, 0.318, 192.0, 248.0, 112.0, 227.0, 32.0, 9.0, 240.0, 0.0, 0.0, 0.0, 1.652233023036496E9, 0.0, 2022-05-10 20:37:03.036
0.0, 0.0, 0.0, 0.0, 0.0, -12415.812899567236, 7222.586241076737, 0.0, 0.0, -0.242, -0.924, 0.318, 192.0, 0.0, 0.0, 0.0, 0.0, 0.0, 0.0, 0.0, 0.0, 0.0, 1.6522330230364997E9, 0.0, 2022-05-10 20:37:03.036
1.0, 0.0, 0.0, 0.0, 0.0, -12469.077106604233, 7168.450316005983, 0.0, 0.0, -0.242, -0.924, 0.318, 192.0, 0.0, 0.0, 0.0, 0.0, 0.0, 0.0, 0.0, 0.0, 0.0, 1.6522330230365028E9, 0.0, 2022-05-10 20:37:03.036
2.0, 0.0, 0.0, 0.0, 0.0, -12504.012883187877, 7138.610737158148, 0.0, 0.0, -0.242, -0.924, 0.318, 192.0, 0.0, 0.0, 0.0, 0.0, 0.0, 0.0, 0.0, 0.0, 0.0, 1.652233023036506E9, 0.0, 2022-05-10 20:37:03.036
3.0, 0.0, 0.0, 0.0, 0.0, -12508.527935567849, 7134.74388536738, 0.0, 0.0, -0.242, -0.924, 0.318, 192.0, 0.0, 0.0, 0.0, 0.0, 0.0, 0.0, 0.0, 0.0, 0.0, 1.6522330230365093E9, 0.0, 2022-05-10 20:37:03.036
4.0, 0.0, 0.0, 0.0, 0.0, -12506.270409377863, 7132.12873126611, 0.0, 0.0, -0.242, -0.924, 0.318, 192.0, 0.0, 0.0, 0.0, 0.0, 0.0, 0.0, 0.0, 0.0, 0.0, 1.6522330230365121E9, 0.0, 2022-05-10 20:37:03.036
5.0, 0.0, 0.0, 0.0, 0.0, -12563.15559901662, 7078.126916662088, 0.0, 0.0, -0.242, -0.924, 0.318, 192.0, 0.0, 0.0, 0.0, 0.0, 0.0, 0.0, 0.0, 0.0, 0.0, 1.6522330230365155E9, 0.0, 2022-05-10 20:37:03.036
6.0, 0.0, 0.0, 0.0, 0.0, -12607.412053038128, 7040.732448188359, 0.0, 0.0, -0.242, -0.924, 0.318, 192.0, 0.0, 0.0, 0.0, 0.0, 0.0, 0.0, 0.0, 0.0, 0.0, 1.6522330230365183E9, 0.0, 2022-05-10 20:37:03.036
7.0, 0.0, 0.0, 0.0, 0.0, -12602.695834958058, 7040.44187551044, 0.0, 0.0, -0.242, -0.924, 0.318, 192.0, 0.0, 0.0, 0.0, 0.0, 0.0, 0.0, 0.0, 0.0, 0.0, 1.6522330230365217E9, 0.0, 2022-05-10 20:37:03.036
8.0, 0.0, 0.0, 0.0, 0.0, -12593.330454031284, 7039.368991776585, 0.0, 0.0, -0.242, -0.924, 0.318, 192.0, 0.0, 0.0, 0.0, 0.0, 0.0, 0.0, 0.0, 0.0, 0.0, 1.6522330230365248E9, 0.0, 2022-05-10 20:37:03.036
9.0, 0.0, 0.0, 0.0, 0.0, -12636.82694874131, 6998.889982568024, 0.0, 0.0, -0.242, -0.928, 0.32, 192.0, 248.0, 112.0, 227.0, 0.0, 10.0, 0.0, 0.0, 0.0, 0.0, 1.6522330235149865E9, 0.0, 2022-05-10 20:37:03.514
10.0, 0.0, 0.0, 0.0, 0.0, -12692.572199412847, 6946.2516243757755, 0.0, 0.0, -0.242, -0.928, 0.32, 192.0, 0.0, 0.0, 0.0, 0.0, 0.0, 0.0, 0.0, 0.0, 0.0, 1.6522330235151708E9, 0.0, 2022-05-10 20:37:03.515
11.0, 0.0, 0.0, 0.0, 0.0, -12700.46236520557, 6945.066981919645, 0.0, 0.0, -0.242, -0.928, 0.32, 192.0, 0.0, 0.0, 0.0, 0.0, 0.0, 0.0, 0.0, 0.0, 0.0, 1.652233023515177E9, 0.0, 2022-05-10 20:37:03.515
12.0, 0.0, 0.0, 0.0, 0.0, -12708.106661809286, 6935.701600992871, 0.0, 0.0, -0.242, -0.928, 0.32, 192.0, 0.0, 0.0, 0.0, 0.0, 0.0, 0.0, 0.0, 0.0, 0.0, 1.6522330235151842E9, 0.0, 2022-05-10 20:37:03.515
13.0, 0.0, 0.0, 0.0, 0.0, -12738.460330779593, 6908.119548335022, 0.0, 0.0, -0.242, -0.928, 0.32, 192.0, 0.0, 0.0, 0.0, 0.0, 0.0, 0.0, 0.0, 0.0, 0.0, 1.652233023515188E9, 0.0, 2022-05-10 20:37:03.515
14.0, 0.0, 0.0, 0.0, 0.0, -12802.542782132958, 6849.759143562215, 0.0, 0.0, -0.242, -0.928, 0.32, 192.0, 0.0, 0.0, 0.0, 0.0, 0.0, 0.0, 0.0, 0.0, 0.0, 1.6522330235151925E9, 0.0, 2022-05-10 20:37:03.515
15.0, 0.0, 0.0, 0.0, 0.0, -12809.114195002818, 6835.677544555372, 0.0, 0.0, -0.242, -0.928, 0.32, 192.0, 0.0, 0.0, 0.0, 0.0, 0.0, 0.0, 0.0, 0.0, 0.0, 1.652233023515196E9, 0.0, 2022-05-10 20:37:03.515
16.0, 0.0, 0.0, 0.0, 0.0, -12803.168630977707, 6830.290774141643, 0.0, 0.0, -0.242, -0.928, 0.32, 192.0, 0.0, 0.0, 0.0, 0.0, 0.0, 0.0, 0.0, 0.0, 0.0, 1.6522330235151997E9, 0.0, 2022-05-10 20:37:03.515
17.0, 0.0, 0.0, 0.0, 0.0, -12818.859555585332, 6814.063407667089, 0.0, 0.0, -0.242, -0.928, 0.32, 192.0, 0.0, 0.0, 0.0, 0.0, 0.0, 0.0, 0.0, 0.0, 0.0, 1.6522330235152028E9, 0.0, 2022-05-10 20:37:03.515
18.0, 0.0, 0.0, 0.0, 0.0, -12882.226751116128, 6758.139343039911, 0.0, 0.0, -0.242, -0.928, 0.32, 192.0, 0.0, 0.0, 0.0, 0.0, 0.0, 0.0, 0.0, 0.0, 0.0, 1.652233023515206E9, 0.0, 2022-05-10 20:37:03.515
19.0, 0.0, 0.0, 0.0, 0.0, -12902.924466481742, 6738.71567710825, 0.0, 0.0, -0.244, -0.928, 0.316, 192.0, 248.0, 96.0, 227.0, 0.0, 9.0, 224.0, 0.0, 0.0, 0.0, 1.6522330235152094E9, 0.0, 2022-05-10 20:37:03.515
20.0, 0.0, 0.0, 0.0, 0.0, -12903.75148102659, 6736.324040451532, 0.0, 0.0, -0.244, -0.928, 0.316, 192.0, 0.0, 0.0, 0.0, 0.0, 0.0, 0.0, 0.0, 0.0, 0.0, 1.6522330235152128E9, 0.0, 2022-05-10 20:37:03.515
21.0, 0.0, 0.0, 0.0, 0.0, -12910.211135174171, 6721.2366129442, 0.0, 0.0, -0.244, -0.928, 0.316, 192.0, 0.0, 0.0, 0.0, 0.0, 0.0, 0.0, 0.0, 0.0, 0.0, 1.652233023515216E9, 0.0, 2022-05-10 20:37:03.515
22.0, 0.0, 0.0, 0.0, 0.0, -12980.596778463934, 6660.238702325667, 0.0, 0.0, -0.244, -0.928, 0.316, 192.0, 0.0, 0.0, 0.0, 0.0, 0.0, 0.0, 0.0, 0.0, 0.0, 1.6522330235152194E9, 0.0, 2022-05-10 20:37:03.515
23.0, 0.0, 0.0, 0.0, 0.0, -13012.515069546112, 6634.713010157706, 0.0, 0.0, -0.244, -0.928, 0.316, 192.0, 0.0, 0.0, 0.0, 0.0, 0.0, 0.0, 0.0, 0.0, 0.0, 1.6522330235152223E9, 0.0, 2022-05-10 20:37:03.515
24.0, 0.0, 0.0, 0.0, 0.0, -13010.637523011867, 6633.640126423851, 0.0, 0.0, -0.244, -0.928, 0.316, 192.0, 0.0, 0.0, 0.0, 0.0, 0.0, 0.0, 0.0, 0.0, 0.0, 1.6522330235152256E9, 0.0, 2022-05-10 20:37:03.515
25.0, 0.0, 0.0, 0.0, 0.0, -13012.38095907938, 6633.617774679396, 0.0, 0.0, -0.244, -0.928, 0.316, 192.0, 0.0, 0.0, 0.0, 0.0, 0.0, 0.0, 0.0, 0.0, 0.0, 1.6522330235152287E9, 0.0, 2022-05-10 20:37:03.515
26.0, 0.0, 0.0, 0.0, 0.0, -13071.836599330498, 6578.185448430235, 0.0, 0.0, -0.244, -0.928, 0.316, 192.0, 0.0, 0.0, 0.0, 0.0, 0.0, 0.0, 0.0, 0.0, 0.0, 1.6522330235152318E9, 0.0, 2022-05-10 20:37:03.515
27.0, 0.0, 0.0, 0.0, 0.0, -13111.913277138863, 6540.455703789677, 0.0, 0.0, -0.244, -0.928, 0.316, 192.0, 0.0, 0.0, 0.0, 0.0, 0.0, 0.0, 0.0, 0.0, 0.0, 1.6522330235152347E9, 0.0, 2022-05-10 20:37:03.515
28.0, 0.0, 0.0, 0.0, 0.0, -13113.455547506279, 6537.639383988308, 0.0, 0.0, -0.244, -0.928, 0.316, 192.0, 0.0, 0.0, 0.0, 0.0, 0.0, 0.0, 0.0, 0.0, 0.0, 1.652233023515238E9, 0.0, 2022-05-10 20:37:03.515
29.0, 0.0, 0.0, 0.0, 0.0, -13108.202887559282, 6539.315764822455, 0.0, 0.0, -0.25, -0.924, 0.322, 192.0, 248.0, 48.0, 227.0, 32.0, 10.0, 16.0, 0.0, 0.0, 0.0, 1.6522330235152411E9, 0.0, 2022-05-10 20:37:03.515
30.0, 0.0, 0.0, 0.0, 0.0, -13150.447684579813, 6494.120537533825, 0.0, 0.0, -0.25, -0.924, 0.322, 192.0, 0.0, 0.0, 0.0, 0.0, 0.0, 0.0, 0.0, 0.0, 0.0, 1.6522330235152445E9, 0.0, 2022-05-10 20:37:03.515
31.0, 0.0, 0.0, 0.0, 0.0, -13200.180315992871, 6440.297536885445, 0.0, 0.0, -0.25, -0.924, 0.322, 192.0, 0.0, 0.0, 0.0, 0.0, 0.0, 0.0, 0.0, 0.0, 0.0, 1.6522330235152473E9, 0.0, 2022-05-10 20:37:03.515
32.0, 0.0, 0.0, 0.0, 0.0, -13193.340682189546, 6440.118722929803, 0.0, 0.0, -0.25, -0.924, 0.322, 192.0, 0.0, 0.0, 0.0, 0.0, 0.0, 0.0, 0.0, 0.0, 0.0, 1.6522330235152507E9, 0.0, 2022-05-10 20:37:03.515
33.0, 0.0, 0.0, 0.0, 0.0, -13191.865467055497, 6446.220749166102, 0.0, 0.0, -0.25, -0.924, 0.322, 192.0, 0.0, 0.0, 0.0, 0.0, 0.0, 0.0, 0.0, 0.0, 0.0, 1.652233023515254E9, 0.0, 2022-05-10 20:37:03.515
34.0, 0.0, 0.0, 0.0, 0.0, -13236.680714688388, 6405.31705681289, 0.0, 0.0, -0.25, -0.924, 0.322, 192.0, 0.0, 0.0, 0.0, 0.0, 0.0, 0.0, 0.0, 0.0, 0.0, 1.6522330235152571E9, 0.0, 2022-05-10 20:37:03.515
35.0, 0.0, 0.0, 0.0, 0.0, -13296.292817150692, 6351.762277097974, 0.0, 0.0, -0.25, -0.924, 0.322, 192.0, 0.0, 0.0, 0.0, 0.0, 0.0, 0.0, 0.0, 0.0, 0.0, 1.6522330235152602E9, 0.0, 2022-05-10 20:37:03.515
36.0, 0.0, 0.0, 0.0, 0.0, -13303.400671887479, 6343.983870027527, 0.0, 0.0, -0.25, -0.924, 0.322, 192.0, 0.0, 0.0, 0.0, 0.0, 0.0, 0.0, 0.0, 0.0, 0.0, 1.6522330235152633E9, 0.0, 2022-05-10 20:37:03.515
37.0, 0.0, 0.0, 0.0, 0.0, -13308.116889967549, 6333.344439666801, 0.0, 0.0, -0.25, -0.924, 0.322, 192.0, 0.0, 0.0, 0.0, 0.0, 0.0, 0.0, 0.0, 0.0, 0.0, 1.6522330235152664E9, 0.0, 2022-05-10 20:37:03.515
38.0, 0.0, 0.0, 0.0, 0.0, -13336.905936825984, 6300.241506128491, 0.0, 0.0, -0.25, -0.924, 0.322, 192.0, 0.0, 0.0, 0.0, 0.0, 0.0, 0.0, 0.0, 0.0, 0.0, 1.6522330235152695E9, 0.0, 2022-05-10 20:37:03.515
39.0, 0.0, 0.0, 0.0, 0.0, -13396.495687543833, 6247.267871769413, 0.0, 0.0, -0.244, -0.918, 0.32, 192.0, 248.0, 96.0, 227.0, 80.0, 10.0, 0.0, 0.0, 0.0, 0.0, 1.6522330235152729E9, 0.0, 2022-05-10 20:37:03.515
40.0, 0.0, 0.0, 0.0, 0.0, -13405.257571370314, 6237.969546076006, 0.0, 0.0, -0.244, -0.918, 0.32, 192.0, 0.0, 0.0, 0.0, 0.0, 0.0, 0.0, 0.0, 0.0, 0.0, 1.652233023515276E9, 0.0, 2022-05-10 20:37:03.515
41.0, 0.0, 0.0, 0.0, 0.0, -13396.74155673284, 6242.61870892271, 0.0, 0.0, -0.244, -0.918, 0.32, 192.0, 0.0, 0.0, 0.0, 0.0, 0.0, 0.0, 0.0, 0.0, 0.0, 1.652233023515279E9, 0.0, 2022-05-10 20:37:03.515
42.0, 0.0, 0.0, 0.0, 0.0, -13404.162335892002, 6235.4214472081, 0.0, 0.0, -0.244, -0.918, 0.32, 192.0, 0.0, 0.0, 0.0, 0.0, 0.0, 0.0, 0.0, 0.0, 0.0, 1.6522330235152822E9, 0.0, 2022-05-10 20:37:03.515
43.0, 0.0, 0.0, 0.0, 0.0, -13476.447877460467, 6168.992062686928, 0.0, 0.0, -0.244, -0.918, 0.32, 192.0, 0.0, 0.0, 0.0, 0.0, 0.0, 0.0, 0.0, 0.0, 0.0, 1.6522330235152855E9, 0.0, 2022-05-10 20:37:03.515
44.0, 0.0, 0.0, 0.0, 0.0, -13492.563485212742, 6150.976556655951, 0.0, 0.0, -0.244, -0.918, 0.32, 192.0, 0.0, 0.0, 0.0, 0.0, 0.0, 0.0, 0.0, 0.0, 0.0, 1.6522330235152888E9, 0.0, 2022-05-10 20:37:03.515
45.0, 0.0, 0.0, 0.0, 0.0, -13499.760746927352, 6145.478027519945, 0.0, 0.0, -0.244, -0.918, 0.32, 192.0, 0.0, 0.0, 0.0, 0.0, 0.0, 0.0, 0.0, 0.0, 0.0, 1.652233023515292E9, 0.0, 2022-05-10 20:37:03.515
46.0, 0.0, 0.0, 0.0, 0.0, -13507.852078420172, 6132.871643647152, 0.0, 0.0, -0.244, -0.918, 0.32, 192.0, 0.0, 0.0, 0.0, 0.0, 0.0, 0.0, 0.0, 0.0, 0.0, 1.6522330235152953E9, 0.0, 2022-05-10 20:37:03.515
47.0, 0.0, 0.0, 0.0, 0.0, -13569.028802994348, 6074.2206661964265, 0.0, 0.0, -0.244, -0.918, 0.32, 192.0, 0.0, 0.0, 0.0, 0.0, 0.0, 0.0, 0.0, 0.0, 0.0, 1.652233023515298E9, 0.0, 2022-05-10 20:37:03.515
48.0, 0.0, 0.0, 0.0, 0.0, -13594.755660862407, 6054.7299450313985, 0.0, 0.0, -0.244, -0.918, 0.32, 192.0, 0.0, 0.0, 0.0, 0.0, 0.0, 0.0, 0.0, 0.0, 0.0, 1.6522330235153017E9, 0.0, 2022-05-10 20:37:03.515
49.0, 0.0, 0.0, 0.0, 0.0, -13590.553532904809, 6057.970947977418, 0.0, 0.0, -0.246, -0.914, 0.328, 192.0, 248.0, 80.0, 227.0, 112.0, 10.0, 64.0, 0.0, 0.0, 0.0, 1.6522330235153055E9, 0.0, 2022-05-10 20:37:03.515
50.0, 0.0, 0.0, 0.0, 0.0, -13589.391242193133, 6047.018593194318, 0.0, 0.0, -0.246, -0.914, 0.328, 192.0, 0.0, 0.0, 0.0, 0.0, 0.0, 0.0, 0.0, 0.0, 0.0, 1.6522330235153089E9, 0.0, 2022-05-10 20:37:03.515
51.0, 0.0, 0.0, 0.0, 0.0, -13649.98682141147, 5983.785508130254, 0.0, 0.0, -0.246, -0.914, 0.328, 192.0, 0.0, 0.0, 0.0, 0.0, 0.0, 0.0, 0.0, 0.0, 0.0, 1.6522330235153127E9, 0.0, 2022-05-10 20:37:03.515
52.0, 0.0, 0.0, 0.0, 0.0, -13688.2306561745, 5951.375478670058, 0.0, 0.0, -0.246, -0.914, 0.328, 192.0, 0.0, 0.0, 0.0, 0.0, 0.0, 0.0, 0.0, 0.0, 0.0, 1.652233023515316E9, 0.0, 2022-05-10 20:37:03.515
53.0, 0.0, 0.0, 0.0, 0.0, -13689.102374208258, 5951.621347859067, 0.0, 0.0, -0.246, -0.914, 0.328, 192.0, 0.0, 0.0, 0.0, 0.0, 0.0, 0.0, 0.0, 0.0, 0.0, 1.652233023515319E9, 0.0, 2022-05-10 20:37:03.515
54.0, 0.0, 0.0, 0.0, 0.0, -13687.336586396288, 5942.568891354667, 0.0, 0.0, -0.246, -0.914, 0.328, 192.0, 0.0, 0.0, 0.0, 0.0, 0.0, 0.0, 0.0, 0.0, 0.0, 1.652233023515322E9, 0.0, 2022-05-10 20:37:03.515
55.0, 0.0, 0.0, 0.0, 0.0, -13730.497804939487, 5902.671027501944, 0.0, 0.0, -0.246, -0.914, 0.328, 192.0, 0.0, 0.0, 0.0, 0.0, 0.0, 0.0, 0.0, 0.0, 0.0, 1.6522330235153253E9, 0.0, 2022-05-10 20:37:03.515
56.0, 0.0, 0.0, 0.0, 0.0, -13780.811581708382, 5858.638090924989, 0.0, 0.0, -0.246, -0.914, 0.328, 192.0, 0.0, 0.0, 0.0, 0.0, 0.0, 0.0, 0.0, 0.0, 0.0, 1.6522330235153284E9, 0.0, 2022-05-10 20:37:03.515
57.0, 0.0, 0.0, 0.0, 0.0, -13785.572503277363, 5852.44665771087, 0.0, 0.0, -0.246, -0.914, 0.328, 192.0, 0.0, 0.0, 0.0, 0.0, 0.0, 0.0, 0.0, 0.0, 0.0, 1.6522330235153315E9, 0.0, 2022-05-10 20:37:03.515
58.0, 0.0, 0.0, 0.0, 0.0, -13786.176000377656, 5852.379602477504, 0.0, 0.0, -0.252, -0.922, 0.316, 192.0, 248.0, 32.0, 227.0, 48.0, 9.0, 224.0, 0.0, 0.0, 0.0, 1.6522330235153344E9, 0.0, 2022-05-10 20:37:03.515
59.0, 0.0, 0.0, 0.0, 0.0, -13815.434433869654, 5825.289288197671, 0.0, 0.0, -0.252, -0.922, 0.316, 192.0, 0.0, 0.0, 0.0, 0.0, 0.0, 0.0, 0.0, 0.0, 0.0, 1.6522330235153377E9, 0.0, 2022-05-10 20:37:03.515
60.0, 0.0, 0.0, 0.0, 0.0, -13865.100010049346, 5773.120316638985, 0.0, 0.0, -0.252, -0.922, 0.316, 192.0, 0.0, 0.0, 0.0, 0.0, 0.0, 0.0, 0.0, 0.0, 0.0, 1.652233023515341E9, 0.0, 2022-05-10 20:37:03.515
61.0, 0.0, 0.0, 0.0, 0.0, -13870.397373485253, 5762.52558976717, 0.0, 0.0, -0.252, -0.922, 0.316, 192.0, 0.0, 0.0, 0.0, 0.0, 0.0, 0.0, 0.0, 0.0, 0.0, 1.652233023515344E9, 0.0, 2022-05-10 20:37:03.515
62.0, 0.0, 0.0, 0.0, 0.0, -13862.037821058968, 5766.146572368929, 0.0, 0.0, -0.252, -0.922, 0.316, 192.0, 0.0, 0.0, 0.0, 0.0, 0.0, 0.0, 0.0, 0.0, 0.0, 1.6522330235153472E9, 0.0, 2022-05-10 20:37:03.515
63.0, 0.0, 0.0, 0.0, 0.0, -13880.478010234596, 5755.32832805256, 0.0, 0.0, -0.252, -0.922, 0.316, 192.0, 0.0, 0.0, 0.0, 0.0, 0.0, 0.0, 0.0, 0.0, 0.0, 1.65223302351535E9, 0.0, 2022-05-10 20:37:03.515
64.0, 0.0, 0.0, 0.0, 0.0, -13955.669278582249, 5684.920333018343, 0.0, 0.0, -0.252, -0.922, 0.316, 192.0, 0.0, 0.0, 0.0, 0.0, 0.0, 0.0, 0.0, 0.0, 0.0, 1.6522330235153537E9, 0.0, 2022-05-10 20:37:03.515
65.0, 0.0, 0.0, 0.0, 0.0, -13973.416563679762, 5662.680347285313, 0.0, 0.0, -0.252, -0.922, 0.316, 192.0, 0.0, 0.0, 0.0, 0.0, 0.0, 0.0, 0.0, 0.0, 0.0, 1.6522330235153568E9, 0.0, 2022-05-10 20:37:03.515
66.0, 0.0, 0.0, 0.0, 0.0, -13979.652700382794, 5658.88055072791, 0.0, 0.0, -0.252, -0.922, 0.316, 192.0, 0.0, 0.0, 0.0, 0.0, 0.0, 0.0, 0.0, 0.0, 0.0, 1.65223302351536E9, 0.0, 2022-05-10 20:37:03.515
67.0, 0.0, 0.0, 0.0, 0.0, -13987.632273153338, 5642.563777275536, 0.0, 0.0, -0.252, -0.922, 0.316, 192.0, 0.0, 0.0, 0.0, 0.0, 0.0, 0.0, 0.0, 0.0, 0.0, 1.652233023515363E9, 0.0, 2022-05-10 20:37:03.515
68.0, 0.0, 0.0, 0.0, 0.0, -14040.941183679246, 5593.792270874056, 0.0, 0.0, -0.25, -0.918, 0.31, 192.0, 248.0, 48.0, 227.0, 80.0, 9.0, 176.0, 0.0, 0.0, 0.0, 1.652233023515366E9, 0.0, 2022-05-10 20:37:03.515
69.0, 0.0, 0.0, 0.0, 0.0, -14059.761352510615, 5574.05568052002, 0.0, 0.0, -0.25, -0.918, 0.31, 192.0, 0.0, 0.0, 0.0, 0.0, 0.0, 0.0, 0.0, 0.0, 0.0, 1.6522330235153692E9, 0.0, 2022-05-10 20:37:03.515
70.0, 0.0, 0.0, 0.0, 0.0, -14060.342497866452, 5570.255883962618, 0.0, 0.0, -0.25, -0.918, 0.31, 192.0, 0.0, 0.0, 0.0, 0.0, 0.0, 0.0, 0.0, 0.0, 0.0, 1.6522330235153725E9, 0.0, 2022-05-10 20:37:03.515
