%OpenBCI Raw EEG Data
%Number of channels = 8
%Sample Rate = 250 Hz
%Board = OpenBCI_GUI$BoardCytonSerial
Sample Index, EXG Channel 0, EXG Channel 1, EXG Channel 2, EXG Channel 3, EXG Channel 4, EXG Channel 5, EXG Channel 6, EXG Channel 7, Accel Channel 0, Accel Channel 1, Accel Channel 2, Other, Other, Other, Other, Other, Other, Other, Analog Channel 0, Analog Channel 1, Analog Channel 2, Timestamp, Other, Timestamp (Formatted)
198.0, 0.0, 0.0, 0.0, 0.0, -13429.03982747076, 1031.6447653346975, 0.0, 0.0, 0.0, 0.0, 0.0, 192.0, 0.0, 0.0, 0.0, 0.0, 0.0, 0.0, 0.0, 0.0, 0.0, 1.6522401381161442E9, 0.0, 2022-05-10 22:35:38.116
199.0, 0.0, 0.0, 0.0, 0.0, -13455.70545860594, 1002.274573120424, 0.0, 0.0, 0.0, 0.0, 0.0, 192.0, 0.0, 0.0, 0.0, 0.0, 0.0, 0.0, 0.0, 0.0, 0.0, 1.65224013811615E9, 0.0, 2022-05-10 22:35:38.116
200.0, 0.0, 0.0, 0.0, 0.0, -13455.884272561583, 1001.760482997952, 0.0, 0.0, 0.0, 0.0, 0.0, 192.0, 0.0, 0.0, 0.0, 0.0, 0.0, 0.0, 0.0, 0.0, 0.0, 1.6522401381161544E9, 0.0, 2022-05-10 22:35:38.116
201.0, 0.0, 0.0, 0.0, 0.0, -13440.975659009893, 1016.5126343384546, 0.0, 0.0, -0.332, -0.928, 0.132, 192.0, 245.0, 160.0, 227.0, 0.0, 4.0, 32.0, 0.0, 0.0, 0.0, 1.6522401381161587E9, 0.0, 2022-05-10 22:35:38.116
202.0, 0.0, 0.0, 0.0, 0.0, -13428.346923392644, 1021.6088320742646, 0.0, 0.0, -0.332, -0.928, 0.132, 192.0, 0.0, 0.0, 0.0, 0.0, 0.0, 0.0, 0.0, 0.0, 0.0, 1.652240138116164E9, 0.0, 2022-05-10 22:35:38.116
203.0, 0.0, 0.0, 0.0, 0.0, -13439.90277527604, 1029.0296112334265, 0.0, 0.0, -0.332, -0.928, 0.132, 192.0, 0.0, 0.0, 0.0, 0.0, 0.0, 0.0, 0.0, 0.0, 0.0, 1.6522401381161687E9, 0.0, 2022-05-10 22:35:38.116
204.0, 0.0, 0.0, 0.0, 0.0, -13446.630650357087, 1024.3804483867227, 0.0, 0.0, -0.332, -0.928, 0.132, 192.0, 0.0, 0.0, 0.0, 0.0, 0.0, 0.0, 0.0, 0.0, 0.0, 1.652240138116173E9, 0.0, 2022-05-10 22:35:38.116
205.0, 0.0, 0.0, 0.0, 0.0, -13425.262382657813, 1043.9605765295717, 0.0, 0.0, -0.332, -0.928, 0.132, 192.0, 0.0, 0.0, 0.0, 0.0, 0.0, 0.0, 0.0, 0.0, 0.0, 1.652240138116177E9, 0.0, 2022-05-10 22:35:38.116
206.0, 0.0, 0.0, 0.0, 0.0, -13401.569533535187, 1065.7982308624066, 0.0, 0.0, -0.332, -0.928, 0.132, 192.0, 0.0, 0.0, 0.0, 0.0, 0.0, 0.0, 0.0, 0.0, 0.0, 1.6522401381161811E9, 0.0, 2022-05-10 22:35:38.116
207.0, 0.0, 0.0, 0.0, 0.0, -13434.85128102914, 1025.3192216538455, 0.0, 0.0, -0.332, -0.928, 0.132, 192.0, 0.0, 0.0, 0.0, 0.0, 0.0, 0.0, 0.0, 0.0, 0.0, 1.6522401381161857E9, 0.0, 2022-05-10 22:35:38.116
208.0, 0.0, 0.0, 0.0, 0.0, -13461.606319142142, 998.7429974964855, 0.0, 0.0, -0.332, -0.928, 0.132, 192.0, 0.0, 0.0, 0.0, 0.0, 0.0, 0.0, 0.0, 0.0, 0.0, 1.6522401381161897E9, 0.0, 2022-05-10 22:35:38.116
209.0, 0.0, 0.0, 0.0, 0.0, -13467.66364188953, 1000.2405643749911, 0.0, 0.0, -0.332, -0.928, 0.132, 192.0, 0.0, 0.0, 0.0, 0.0, 0.0, 0.0, 0.0, 0.0, 0.0, 1.652240138116194E9, 0.0, 2022-05-10 22:35:38.116
210.0, 0.0, 0.0, 0.0, 0.0, -13461.025173786304, 1013.2939831368903, 0.0, 0.0, -0.332, -0.928, 0.132, 192.0, 0.0, 0.0, 0.0, 0.0, 0.0, 0.0, 0.0, 0.0, 0.0, 1.652240138116198E9, 0.0, 2022-05-10 22:35:38.116
211.0, 0.0, 0.0, 0.0, 0.0, -13445.714228834418, 1017.0714279498372, 0.0, 0.0, -0.326, -0.93, 0.132, 192.0, 245.0, 208.0, 226.0, 240.0, 4.0, 32.0, 0.0, 0.0, 0.0, 1.6522401381162024E9, 0.0, 2022-05-10 22:35:38.116
212.0, 0.0, 0.0, 0.0, 0.0, -13428.123405948092, 1036.852721792784, 0.0, 0.0, -0.326, -0.93, 0.132, 192.0, 0.0, 0.0, 0.0, 0.0, 0.0, 0.0, 0.0, 0.0, 0.0, 1.6522401381162066E9, 0.0, 2022-05-10 22:35:38.116
213.0, 0.0, 0.0, 0.0, 0.0, -13417.886306987562, 1050.4872859105212, 0.0, 0.0, -0.326, -0.93, 0.132, 192.0, 0.0, 0.0, 0.0, 0.0, 0.0, 0.0, 0.0, 0.0, 0.0, 1.6522401381162107E9, 0.0, 2022-05-10 22:35:38.116
214.0, 0.0, 0.0, 0.0, 0.0, -13405.771661492785, 1064.6359401507307, 0.0, 0.0, -0.326, -0.93, 0.132, 192.0, 0.0, 0.0, 0.0, 0.0, 0.0, 0.0, 0.0, 0.0, 0.0, 1.6522401381162148E9, 0.0, 2022-05-10 22:35:38.116
215.0, 0.0, 0.0, 0.0, 0.0, -13390.661882240998, 1068.368681474767, 0.0, 0.0, -0.326, -0.93, 0.132, 192.0, 0.0, 0.0, 0.0, 0.0, 0.0, 0.0, 0.0, 0.0, 0.0, 1.6522401381162188E9, 0.0, 2022-05-10 22:35:38.116
216.0, 0.0, 0.0, 0.0, 0.0, -13403.089452158149, 1069.6650826531747, 0.0, 0.0, -0.326, -0.93, 0.132, 192.0, 0.0, 0.0, 0.0, 0.0, 0.0, 0.0, 0.0, 0.0, 0.0, 1.6522401381162233E9, 0.0, 2022-05-10 22:35:38.116
217.0, 0.0, 0.0, 0.0, 0.0, -13432.3702373946, 1042.8429893068062, 0.0, 0.0, -0.326, -0.93, 0.132, 192.0, 0.0, 0.0, 0.0, 0.0, 0.0, 0.0, 0.0, 0.0, 0.0, 1.6522401381162274E9, 0.0, 2022-05-10 22:35:38.116
218.0, 0.0, 0.0, 0.0, 0.0, -13435.387722896066, 1024.0228204754378, 0.0, 0.0, -0.326, -0.93, 0.132, 192.0, 0.0, 0.0, 0.0, 0.0, 0.0, 0.0, 0.0, 0.0, 0.0, 1.6522401381162317E9, 0.0, 2022-05-10 22:35:38.116
219.0, 0.0, 0.0, 0.0, 0.0, -13422.379007623078, 1035.1539892141807, 0.0, 0.0, -0.326, -0.93, 0.132, 192.0, 0.0, 0.0, 0.0, 0.0, 0.0, 0.0, 0.0, 0.0, 0.0, 1.6522401381162355E9, 0.0, 2022-05-10 22:35:38.116
220.0, 0.0, 0.0, 0.0, 0.0, -13419.696798288442, 1044.7205358410522, 0.0, 0.0, -0.326, -0.93, 0.132, 192.0, 0.0, 0.0, 0.0, 0.0, 0.0, 0.0, 0.0, 0.0, 0.0, 1.6522401381162426E9, 0.0, 2022-05-10 22:35:38.116
221.0, 0.0, 0.0, 0.0, 0.0, -13400.586056779153, 1071.3191117428676, 0.0, 0.0, -0.326, -0.934, 0.132, 192.0, 245.0, 208.0, 226.0, 208.0, 4.0, 32.0, 0.0, 0.0, 0.0, 1.6522401381162467E9, 0.0, 2022-05-10 22:35:38.116
222.0, 0.0, 0.0, 0.0, 0.0, -13401.278960857268, 1080.59508569182, 0.0, 0.0, -0.326, -0.934, 0.132, 192.0, 0.0, 0.0, 0.0, 0.0, 0.0, 0.0, 0.0, 0.0, 0.0, 1.6522401381162508E9, 0.0, 2022-05-10 22:35:38.116
223.0, 0.0, 0.0, 0.0, 0.0, -13410.286713872758, 1056.432849935633, 0.0, 0.0, -0.326, -0.934, 0.132, 192.0, 0.0, 0.0, 0.0, 0.0, 0.0, 0.0, 0.0, 0.0, 0.0, 1.652240138116255E9, 0.0, 2022-05-10 22:35:38.116
224.0, 0.0, 0.0, 0.0, 0.0, -13394.416975309488, 1062.6466348942083, 0.0, 0.0, -0.326, -0.934, 0.132, 192.0, 0.0, 0.0, 0.0, 0.0, 0.0, 0.0, 0.0, 0.0, 0.0, 1.6522401381162596E9, 0.0, 2022-05-10 22:35:38.116
225.0, 0.0, 0.0, 0.0, 0.0, -13410.17495515048, 1044.9440532856052, 0.0, 0.0, -0.326, -0.934, 0.132, 192.0, 0.0, 0.0, 0.0, 0.0, 0.0, 0.0, 0.0, 0.0, 0.0, 1.6522401381162643E9, 0.0, 2022-05-10 22:35:38.116
226.0, 0.0, 0.0, 0.0, 0.0, -13452.75502833784, 1011.662305791653, 0.0, 0.0, -0.326, -0.934, 0.132, 192.0, 0.0, 0.0, 0.0, 0.0, 0.0, 0.0, 0.0, 0.0, 0.0, 1.6522401381162686E9, 0.0, 2022-05-10 22:35:38.116
227.0, 0.0, 0.0, 0.0, 0.0, -13463.416810443023, 1007.6389917896977, 0.0, 0.0, -0.326, -0.934, 0.132, 192.0, 0.0, 0.0, 0.0, 0.0, 0.0, 0.0, 0.0, 0.0, 0.0, 1.6522401381162736E9, 0.0, 2022-05-10 22:35:38.116
228.0, 0.0, 0.0, 0.0, 0.0, -13450.072819003204, 1016.2891168939016, 0.0, 0.0, -0.326, -0.934, 0.132, 192.0, 0.0, 0.0, 0.0, 0.0, 0.0, 0.0, 0.0, 0.0, 0.0, 1.6522401381162803E9, 0.0, 2022-05-10 22:35:38.116
229.0, 0.0, 0.0, 0.0, 0.0, -13454.006726027337, 1025.922718754139, 0.0, 0.0, -0.326, -0.934, 0.132, 192.0, 0.0, 0.0, 0.0, 0.0, 0.0, 0.0, 0.0, 0.0, 0.0, 1.6522401381162853E9, 0.0, 2022-05-10 22:35:38.116
230.0, 0.0, 0.0, 0.0, 0.0, -13441.445045643455, 1035.7127828255634, 0.0, 0.0, -0.324, -0.9400000000000001, 0.138, 192.0, 245.0, 224.0, 226.0, 160.0, 4.0, 80.0, 0.0, 0.0, 0.0, 1.6522401381162896E9, 0.0, 2022-05-10 22:35:38.116
231.0, 0.0, 0.0, 0.0, 0.0, -13422.803690767729, 1046.9780620310382, 0.0, 0.0, -0.324, -0.9400000000000001, 0.138, 192.0, 0.0, 0.0, 0.0, 0.0, 0.0, 0.0, 0.0, 0.0, 0.0, 1.6522401381162944E9, 0.0, 2022-05-10 22:35:38.116
232.0, 0.0, 0.0, 0.0, 0.0, -13428.950420492938, 1043.11121024027, 0.0, 0.0, -0.324, -0.9400000000000001, 0.138, 192.0, 0.0, 0.0, 0.0, 0.0, 0.0, 0.0, 0.0, 0.0, 0.0, 1.652240138116299E9, 0.0, 2022-05-10 22:35:38.116
233.0, 0.0, 0.0, 0.0, 0.0, -13484.449801975466, 987.9694566690275, 0.0, 0.0, -0.324, -0.9400000000000001, 0.138, 192.0, 0.0, 0.0, 0.0, 0.0, 0.0, 0.0, 0.0, 0.0, 0.0, 1.6522401381163068E9, 0.0, 2022-05-10 22:35:38.116
234.0, 0.0, 0.0, 0.0, 0.0, -13504.029930118315, 968.2552180594466, 0.0, 0.0, -0.324, -0.9400000000000001, 0.138, 192.0, 0.0, 0.0, 0.0, 0.0, 0.0, 0.0, 0.0, 0.0, 0.0, 1.6522401381163113E9, 0.0, 2022-05-10 22:35:38.116
235.0, 0.0, 0.0, 0.0, 0.0, -13507.919133653539, 967.405851770145, 0.0, 0.0, -0.324, -0.9400000000000001, 0.138, 192.0, 0.0, 0.0, 0.0, 0.0, 0.0, 0.0, 0.0, 0.0, 0.0, 1.6522401381163154E9, 0.0, 2022-05-10 22:35:38.116
236.0, 0.0, 0.0, 0.0, 0.0, -13477.319595494224, 1012.6681342921418, 0.0, 0.0, -0.324, -0.9400000000000001, 0.138, 192.0, 0.0, 0.0, 0.0, 0.0, 0.0, 0.0, 0.0, 0.0, 0.0, 1.6522401381163197E9, 0.0, 2022-05-10 22:35:38.116
237.0, 0.0, 0.0, 0.0, 0.0, -13463.439162187477, 1010.4106081021557, 0.0, 0.0, -0.324, -0.9400000000000001, 0.138, 192.0, 0.0, 0.0, 0.0, 0.0, 0.0, 0.0, 0.0, 0.0, 0.0, 1.6522401381163237E9, 0.0, 2022-05-10 22:35:38.116
238.0, 0.0, 0.0, 0.0, 0.0, -13470.681127390997, 989.1317473807035, 0.0, 0.0, -0.324, -0.9400000000000001, 0.138, 192.0, 0.0, 0.0, 0.0, 0.0, 0.0, 0.0, 0.0, 0.0, 0.0, 1.6522401381163282E9, 0.0, 2022-05-10 22:35:38.116
239.0, 0.0, 0.0, 0.0, 0.0, -13456.688935361975, 1010.8799947357172, 0.0, 0.0, -0.324, -0.9400000000000001, 0.138, 192.0, 0.0, 0.0, 0.0, 0.0, 0.0, 0.0, 0.0, 0.0, 0.0, 1.6522401381163323E9, 0.0, 2022-05-10 22:35:38.116
240.0, 0.0, 0.0, 0.0, 0.0, -13469.89881633506, 1012.9587069700608, 0.0, 0.0, -0.324, -0.934, 0.14, 192.0, 245.0, 224.0, 226.0, 208.0, 4.0, 96.0, 0.0, 0.0, 0.0, 1.6522401381163366E9, 0.0, 2022-05-10 22:35:38.116
241.0, 0.0, 0.0, 0.0, 0.0, -13499.693691693985, 984.1696601116253, 0.0, 0.0, -0.324, -0.934, 0.14, 192.0, 0.0, 0.0, 0.0, 0.0, 0.0, 0.0, 0.0, 0.0, 0.0, 1.652240138116342E9, 0.0, 2022-05-10 22:35:38.116
242.0, 0.0, 0.0, 0.0, 0.0, -13513.015331389348, 965.4612500025332, 0.0, 0.0, -0.324, -0.934, 0.14, 192.0, 0.0, 0.0, 0.0, 0.0, 0.0, 0.0, 0.0, 0.0, 0.0, 1.6522401381163464E9, 0.0, 2022-05-10 22:35:38.116
243.0, 0.0, 0.0, 0.0, 0.0, -13496.787964914796, 981.0404158878823, 0.0, 0.0, -0.324, -0.934, 0.14, 192.0, 0.0, 0.0, 0.0, 0.0, 0.0, 0.0, 0.0, 0.0, 0.0, 1.652240138116351E9, 0.0, 2022-05-10 22:35:38.116
244.0, 0.0, 0.0, 0.0, 0.0, -13475.129124537603, 1003.146291154181, 0.0, 0.0, -0.324, -0.934, 0.14, 192.0, 0.0, 0.0, 0.0, 0.0, 0.0, 0.0, 0.0, 0.0, 0.0, 1.6522401381163547E9, 0.0, 2022-05-10 22:35:38.116
245.0, 0.0, 0.0, 0.0, 0.0, -13460.466380174921, 1017.9654977280495, 0.0, 0.0, -0.324, -0.934, 0.14, 192.0, 0.0, 0.0, 0.0, 0.0, 0.0, 0.0, 0.0, 0.0, 0.0, 1.652240138116359E9, 0.0, 2022-05-10 22:35:38.116
246.0, 0.0, 0.0, 0.0, 0.0, -13452.75502833784, 1027.6885065661081, 0.0, 0.0, -0.324, -0.934, 0.14, 192.0, 0.0, 0.0, 0.0, 0.0, 0.0, 0.0, 0.0, 0.0, 0.0, 1.6522401381163635E9, 0.0, 2022-05-10 22:35:38.116
247.0, 0.0, 0.0, 0.0, 0.0, -13424.524775090787, 1052.0742597668482, 0.0, 0.0, -0.324, -0.934, 0.14, 192.0, 0.0, 0.0, 0.0, 0.0, 0.0, 0.0, 0.0, 0.0, 0.0, 1.652240138116368E9, 0.0, 2022-05-10 22:35:38.116
248.0, 0.0, 0.0, 0.0, 0.0, -13437.824063041695, 1028.336707155312, 0.0, 0.0, -0.324, -0.934, 0.14, 192.0, 0.0, 0.0, 0.0, 0.0, 0.0, 0.0, 0.0, 0.0, 0.0, 1.652240138116372E9, 0.0, 2022-05-10 22:35:38.116
249.0, 0.0, 0.0, 0.0, 0.0, -13422.714283789908, 1032.3600211572673, 0.0, 0.0, -0.324, -0.934, 0.14, 192.0, 0.0, 0.0, 0.0, 0.0, 0.0, 0.0, 0.0, 0.0, 0.0, 1.652240138116376E9, 0.0, 2022-05-10 22:35:38.116
250.0, 0.0, 0.0, 0.0, 0.0, -13406.12928940407, 1042.5747683733425, 0.0, 0.0, -0.326, -0.932, 0.134, 192.0, 245.0, 208.0, 226.0, 224.0, 4.0, 48.0, 0.0, 0.0, 0.0, 1.6522401381163805E9, 0.0, 2022-05-10 22:35:38.116
251.0, 0.0, 0.0, 0.0, 0.0, -13392.539428775244, 1044.1840939741248, 0.0, 0.0, -0.326, -0.932, 0.134, 192.0, 0.0, 0.0, 0.0, 0.0, 0.0, 0.0, 0.0, 0.0, 0.0, 1.6522401381163845E9, 0.0, 2022-05-10 22:35:38.116
252.0, 0.0, 0.0, 0.0, 0.0, -13379.128382102059, 1051.180189988636, 0.0, 0.0, -0.326, -0.932, 0.134, 192.0, 0.0, 0.0, 0.0, 0.0, 0.0, 0.0, 0.0, 0.0, 0.0, 1.6522401381163888E9, 0.0, 2022-05-10 22:35:38.116
253.0, 0.0, 0.0, 0.0, 0.0, -13404.005873680815, 1023.1063989527702, 0.0, 0.0, -0.326, -0.932, 0.134, 192.0, 0.0, 0.0, 0.0, 0.0, 0.0, 0.0, 0.0, 0.0, 0.0, 1.652240138116393E9, 0.0, 2022-05-10 22:35:38.116
254.0, 0.0, 0.0, 0.0, 0.0, -13380.335376302646, 1032.5835386018205, 0.0, 0.0, -0.326, -0.932, 0.134, 192.0, 0.0, 0.0, 0.0, 0.0, 0.0, 0.0, 0.0, 0.0, 0.0, 1.6522401381163971E9, 0.0, 2022-05-10 22:35:38.116
255.0, 0.0, 0.0, 0.0, 0.0, -13340.5492711722, 1062.6466348942083, 0.0, 0.0, -0.326, -0.932, 0.134, 192.0, 0.0, 0.0, 0.0, 0.0, 0.0, 0.0, 0.0, 0.0, 0.0, 1.6522401381164014E9, 0.0, 2022-05-10 22:35:38.116
0.0, 0.0, 0.0, 0.0, 0.0, -13359.570605703666, 1041.568939872854, 0.0, 0.0, -0.326, -0.932, 0.134, 192.0, 0.0, 0.0, 0.0, 0.0, 0.0, 0.0, 0.0, 0.0, 0.0, 1.6522401381164057E9, 0.0, 2022-05-10 22:35:38.116
1.0, 0.0, 0.0, 0.0, 0.0, -13355.703753912898, 1036.5397973704098, 0.0, 0.0, -0.326, -0.932, 0.134, 192.0, 0.0, 0.0, 0.0, 0.0, 0.0, 0.0, 0.0, 0.0, 0.0, 1.65224013811641E9, 0.0, 2022-05-10 22:35:38.116
2.0, 0.0, 0.0, 0.0, 0.0, -13334.424893191444, 1038.7302683270298, 0.0, 0.0, -0.326, -0.932, 0.134, 192.0, 0.0, 0.0, 0.0, 0.0, 0.0, 0.0, 0.0, 0.0, 0.0, 1.6522401381164143E9, 0.0, 2022-05-10 22:35:38.116
3.0, 0.0, 0.0, 0.0, 0.0, -13330.178061744937, 1030.169550200647, 0.0, 0.0, -0.326, -0.932, 0.134, 192.0, 0.0, 0.0, 0.0, 0.0, 0.0, 0.0, 0.0, 0.0, 0.0, 1.6522401381164184E9, 0.0, 2022-05-10 22:35:38.116
4.0, 0.0, 0.0, 0.0, 0.0, -13279.976043698318, 1063.6077599057867, 0.0, 0.0, -0.326, -0.934, 0.136, 192.0, 245.0, 208.0, 226.0, 208.0, 4.0, 64.0, 0.0, 0.0, 0.0, 1.652240138116423E9, 0.0, 2022-05-10 22:35:38.116
5.0, 0.0, 0.0, 0.0, 0.0, -13270.163627882437, 1068.2345710080351, 0.0, 0.0, -0.326, -0.934, 0.136, 192.0, 0.0, 0.0, 0.0, 0.0, 0.0, 0.0, 0.0, 0.0, 0.0, 1.6522401381164274E9, 0.0, 2022-05-10 22:35:38.116
6.0, 0.0, 0.0, 0.0, 0.0, -13290.838991503597, 1037.2997566818901, 0.0, 0.0, -0.326, -0.934, 0.136, 192.0, 0.0, 0.0, 0.0, 0.0, 0.0, 0.0, 0.0, 0.0, 0.0, 1.6522401381164331E9, 0.0, 2022-05-10 22:35:38.116
7.0, 0.0, 0.0, 0.0, 0.0, -13301.791346286696, 1018.0549047058707, 0.0, 0.0, -0.326, -0.934, 0.136, 192.0, 0.0, 0.0, 0.0, 0.0, 0.0, 0.0, 0.0, 0.0, 0.0, 1.6522401381164374E9, 0.0, 2022-05-10 22:35:38.116
8.0, 0.0, 0.0, 0.0, 0.0, -13308.5415731122, 1004.7556167549631, 0.0, 0.0, -0.326, -0.934, 0.136, 192.0, 0.0, 0.0, 0.0, 0.0, 0.0, 0.0, 0.0, 0.0, 0.0, 1.6522401381164415E9, 0.0, 2022-05-10 22:35:38.116
9.0, 0.0, 0.0, 0.0, 0.0, -13341.577451417143, 962.5555232233434, 0.0, 0.0, -0.326, -0.934, 0.136, 192.0, 0.0, 0.0, 0.0, 0.0, 0.0, 0.0, 0.0, 0.0, 0.0, 1.652240138116446E9, 0.0, 2022-05-10 22:35:38.116
10.0, 0.0, 0.0, 0.0, 0.0, -13353.647393423009, 955.827648142296, 0.0, 0.0, -0.326, -0.934, 0.136, 192.0, 0.0, 0.0, 0.0, 0.0, 0.0, 0.0, 0.0, 0.0, 0.0, 1.6522401381164503E9, 0.0, 2022-05-10 22:35:38.116
11.0, 0.0, 0.0, 0.0, 0.0, -13351.568681188666, 951.826685884796, 0.0, 0.0, -0.326, -0.934, 0.136, 192.0, 0.0, 0.0, 0.0, 0.0, 0.0, 0.0, 0.0, 0.0, 0.0, 1.6522401381164544E9, 0.0, 2022-05-10 22:35:38.116
12.0, 0.0, 0.0, 0.0, 0.0, -13313.928343525928, 973.2396570729801, 0.0, 0.0, -0.326, -0.934, 0.136, 192.0, 0.0, 0.0, 0.0, 0.0, 0.0, 0.0, 0.0, 0.0, 0.0, 1.6522401381164584E9, 0.0, 2022-05-10 22:35:38.116
13.0, 0.0, 0.0, 0.0, 0.0, -13331.094483267605, 962.600226712254, 0.0, 0.0, -0.326, -0.934, 0.136, 192.0, 0.0, 0.0, 0.0, 0.0, 0.0, 0.0, 0.0, 0.0, 0.0, 1.6522401381164627E9, 0.0, 2022-05-10 22:35:38.116
14.0, 0.0, 0.0, 0.0, 0.0, -13378.010794879294, 921.6071273812208, 0.0, 0.0, -0.322, -0.932, 0.138, 192.0, 245.0, 240.0, 226.0, 224.0, 4.0, 80.0, 0.0, 0.0, 0.0, 1.6522401381164672E9, 0.0, 2022-05-10 22:35:38.116
15.0, 0.0, 0.0, 0.0, 0.0, -13400.250780612325, 896.7743392913746, 0.0, 0.0, -0.322, -0.932, 0.138, 192.0, 0.0, 0.0, 0.0, 0.0, 0.0, 0.0, 0.0, 0.0, 0.0, 1.6522401381164713E9, 0.0, 2022-05-10 22:35:38.116
16.0, 0.0, 0.0, 0.0, 0.0, -13390.416013051989, 912.957002277017, 0.0, 0.0, -0.322, -0.932, 0.138, 192.0, 0.0, 0.0, 0.0, 0.0, 0.0, 0.0, 0.0, 0.0, 0.0, 1.6522401381164753E9, 0.0, 2022-05-10 22:35:38.116
17.0, 0.0, 0.0, 0.0, 0.0, -13367.97486161886, 931.2630809859135, 0.0, 0.0, -0.322, -0.932, 0.138, 192.0, 0.0, 0.0, 0.0, 0.0, 0.0, 0.0, 0.0, 0.0, 0.0, 1.6522401381164799E9, 0.0, 2022-05-10 22:35:38.116
18.0, 0.0, 0.0, 0.0, 0.0, -13316.543497627199, 984.4825845339996, 0.0, 0.0, -0.322, -0.932, 0.138, 192.0, 0.0, 0.0, 0.0, 0.0, 0.0, 0.0, 0.0, 0.0, 0.0, 1.6522401381164844E9, 0.0, 2022-05-10 22:35:38.116
19.0, 0.0, 0.0, 0.0, 0.0, -13320.455052906878, 983.6779217336085, 0.0, 0.0, -0.322, -0.932, 0.138, 192.0, 0.0, 0.0, 0.0, 0.0, 0.0, 0.0, 0.0, 0.0, 0.0, 1.6522401381164885E9, 0.0, 2022-05-10 22:35:38.116
20.0, 0.0, 0.0, 0.0, 0.0, -13356.083733568637, 945.0094038259273, 0.0, 0.0, -0.322, -0.932, 0.138, 192.0, 0.0, 0.0, 0.0, 0.0, 0.0, 0.0, 0.0, 0.0, 0.0, 1.6522401381164925E9, 0.0, 2022-05-10 22:35:38.116
21.0, 0.0, 0.0, 0.0, 0.0, -13342.69503863991, 955.8947033756618, 0.0, 0.0, -0.322, -0.932, 0.138, 192.0, 0.0, 0.0, 0.0, 0.0, 0.0, 0.0, 0.0, 0.0, 0.0, 1.6522401381164968E9, 0.0, 2022-05-10 22:35:38.116
22.0, 0.0, 0.0, 0.0, 0.0, -13347.321849742157, 950.5973399397541, 0.0, 0.0, -0.322, -0.932, 0.138, 192.0, 0.0, 0.0, 0.0, 0.0, 0.0, 0.0, 0.0, 0.0, 0.0, 1.652240138116501E9, 0.0, 2022-05-10 22:35:38.116
23.0, 0.0, 0.0, 0.0, 0.0, -13353.35682074509, 950.5749881952987, 0.0, 0.0, -0.322, -0.932, 0.138, 192.0, 0.0, 0.0, 0.0, 0.0, 0.0, 0.0, 0.0, 0.0, 0.0, 1.6522401381165056E9, 0.0, 2022-05-10 22:35:38.116
24.0, 0.0, 0.0, 0.0, 0.0, -13314.420081903945, 984.7731572119186, 0.0, 0.0, -0.326, -0.93, 0.14, 192.0, 245.0, 208.0, 226.0, 240.0, 4.0, 96.0, 0.0, 0.0, 0.0, 1.6522401381165097E9, 0.0, 2022-05-10 22:35:38.116
25.0, 0.0, 0.0, 0.0, 0.0, -13323.629000619532, 965.2377325579802, 0.0, 0.0, -0.326, -0.93, 0.14, 192.0, 0.0, 0.0, 0.0, 0.0, 0.0, 0.0, 0.0, 0.0, 0.0, 1.6522401381165137E9, 0.0, 2022-05-10 22:35:38.116
26.0, 0.0, 0.0, 0.0, 0.0, -13330.513337911767, 956.6993661760529, 0.0, 0.0, -0.326, -0.93, 0.14, 192.0, 0.0, 0.0, 0.0, 0.0, 0.0, 0.0, 0.0, 0.0, 0.0, 1.652240138116518E9, 0.0, 2022-05-10 22:35:38.116
27.0, 0.0, 0.0, 0.0, 0.0, -13353.289765511725, 945.277624759391, 0.0, 0.0, -0.326, -0.93, 0.14, 192.0, 0.0, 0.0, 0.0, 0.0, 0.0, 0.0, 0.0, 0.0, 0.0, 1.6522401381165223E9, 0.0, 2022-05-10 22:35:38.116
28.0, 0.0, 0.0, 0.0, 0.0, -13340.25869849428, 954.5088952194328, 0.0, 0.0, -0.326, -0.93, 0.14, 192.0, 0.0, 0.0, 0.0, 0.0, 0.0, 0.0, 0.0, 0.0, 0.0, 1.6522401381165285E9, 0.0, 2022-05-10 22:35:38.116
29.0, 0.0, 0.0, 0.0, 0.0, -13343.92438458495, 943.0871538027709, 0.0, 0.0, -0.326, -0.93, 0.14, 192.0, 0.0, 0.0, 0.0, 0.0, 0.0, 0.0, 0.0, 0.0, 0.0, 1.6522401381165328E9, 0.0, 2022-05-10 22:35:38.116
30.0, 0.0, 0.0, 0.0, 0.0, -13336.749474614797, 951.5808166957876, 0.0, 0.0, -0.326, -0.93, 0.14, 192.0, 0.0, 0.0, 0.0, 0.0, 0.0, 0.0, 0.0, 0.0, 0.0, 1.6522401381165369E9, 0.0, 2022-05-10 22:35:38.116
31.0, 0.0, 0.0, 0.0, 0.0, -13303.19950618738, 980.8839536766951, 0.0, 0.0, -0.326, -0.93, 0.14, 192.0, 0.0, 0.0, 0.0, 0.0, 0.0, 0.0, 0.0, 0.0, 0.0, 1.652240138116541E9, 0.0, 2022-05-10 22:35:38.116
32.0, 0.0, 0.0, 0.0, 0.0, -13315.694131337897, 967.3164447923238, 0.0, 0.0, -0.326, -0.93, 0.14, 192.0, 0.0, 0.0, 0.0, 0.0, 0.0, 0.0, 0.0, 0.0, 0.0, 1.6522401381165454E9, 0.0, 2022-05-10 22:35:38.116
33.0, 0.0, 0.0, 0.0, 0.0, -13327.78642508822, 958.6886714325752, 0.0, 0.0, -0.326, -0.93, 0.14, 192.0, 0.0, 0.0, 0.0, 0.0, 0.0, 0.0, 0.0, 0.0, 0.0, 1.6522401381165495E9, 0.0, 2022-05-10 22:35:38.116
34.0, 0.0, 0.0, 0.0, 0.0, -13281.29479662118, 1004.4203405881335, 0.0, 0.0, -0.328, -0.936, 0.132, 192.0, 245.0, 192.0, 226.0, 192.0, 4.0, 32.0, 0.0, 0.0, 0.0, 1.6522401381165545E9, 0.0, 2022-05-10 22:35:38.116
35.0, 0.0, 0.0, 0.0, 0.0, -13282.278273377213, 1011.1929191580915, 0.0, 0.0, -0.328, -0.936, 0.132, 192.0, 0.0, 0.0, 0.0, 0.0, 0.0, 0.0, 0.0, 0.0, 0.0, 1.6522401381165583E9, 0.0, 2022-05-10 22:35:38.116
36.0, 0.0, 0.0, 0.0, 0.0, -13323.53959364171, 976.6147704857315, 0.0, 0.0, -0.328, -0.936, 0.132, 192.0, 0.0, 0.0, 0.0, 0.0, 0.0, 0.0, 0.0, 0.0, 0.0, 1.6522401381165628E9, 0.0, 2022-05-10 22:35:38.116
37.0, 0.0, 0.0, 0.0, 0.0, -13365.225597050858, 927.2174152395029, 0.0, 0.0, -0.328, -0.936, 0.132, 192.0, 0.0, 0.0, 0.0, 0.0, 0.0, 0.0, 0.0, 0.0, 0.0, 1.6522401381165671E9, 0.0, 2022-05-10 22:35:38.116
38.0, 0.0, 0.0, 0.0, 0.0, -13366.812570907185, 918.5896418797544, 0.0, 0.0, -0.328, -0.936, 0.132, 192.0, 0.0, 0.0, 0.0, 0.0, 0.0, 0.0, 0.0, 0.0, 0.0, 1.6522401381165717E9, 0.0, 2022-05-10 22:35:38.116
39.0, 0.0, 0.0, 0.0, 0.0, -13354.78733239023, 934.3029182318352, 0.0, 0.0, -0.328, -0.936, 0.132, 192.0, 0.0, 0.0, 0.0, 0.0, 0.0, 0.0, 0.0, 0.0, 0.0, 1.6522401381165757E9, 0.0, 2022-05-10 22:35:38.116
40.0, 0.0, 0.0, 0.0, 0.0, -13358.542425458721, 927.5303396618772, 0.0, 0.0, -0.328, -0.936, 0.132, 192.0, 0.0, 0.0, 0.0, 0.0, 0.0, 0.0, 0.0, 0.0, 0.0, 1.65224013811658E9, 0.0, 2022-05-10 22:35:38.116
41.0, 0.0, 0.0, 0.0, 0.0, -13314.196564459393, 978.693482720075, 0.0, 0.0, -0.328, -0.936, 0.132, 192.0, 0.0, 0.0, 0.0, 0.0, 0.0, 0.0, 0.0, 0.0, 0.0, 1.6522401381165848E9, 0.0, 2022-05-10 22:35:38.116
42.0, 0.0, 0.0, 0.0, 0.0, -13289.855514747564, 1003.6603812766531, 0.0, 0.0, -0.328, -0.936, 0.132, 192.0, 0.0, 0.0, 0.0, 0.0, 0.0, 0.0, 0.0, 0.0, 0.0, 1.6522401381165888E9, 0.0, 2022-05-10 22:35:38.116
43.0, 0.0, 0.0, 0.0, 0.0, -13299.73498579681, 993.2221166160247, 0.0, 0.0, -0.326, -0.932, 0.132, 192.0, 245.0, 208.0, 226.0, 224.0, 4.0, 32.0, 0.0, 0.0, 0.0, 1.652240138116593E9, 0.0, 2022-05-10 22:35:38.116
44.0, 0.0, 0.0, 0.0, 0.0, -13319.672741850942, 973.4855262619885, 0.0, 0.0, -0.326, -0.932, 0.132, 192.0, 0.0, 0.0, 0.0, 0.0, 0.0, 0.0, 0.0, 0.0, 0.0, 1.6522401381165972E9, 0.0, 2022-05-10 22:35:38.116
45.0, 0.0, 0.0, 0.0, 0.0, -13305.121756210538, 977.6653024751309, 0.0, 0.0, -0.326, -0.932, 0.132, 192.0, 0.0, 0.0, 0.0, 0.0, 0.0, 0.0, 0.0, 0.0, 0.0, 1.6522401381166017E9, 0.0, 2022-05-10 22:35:38.116
46.0, 0.0, 0.0, 0.0, 0.0, -13303.959465498861, 978.9393519090834, 0.0, 0.0, -0.326, -0.932, 0.132, 192.0, 0.0, 0.0, 0.0, 0.0, 0.0, 0.0, 0.0, 0.0, 0.0, 1.652240138116606E9, 0.0, 2022-05-10 22:35:38.116
47.0, 0.0, 0.0, 0.0, 0.0, -13307.960427756361, 974.469003018022, 0.0, 0.0, -0.326, -0.932, 0.132, 192.0, 0.0, 0.0, 0.0, 0.0, 0.0, 0.0, 0.0, 0.0, 0.0, 1.65224013811661E9, 0.0, 2022-05-10 22:35:38.116
48.0, 0.0, 0.0, 0.0, 0.0, -13325.819471576151, 964.8130494133294, 0.0, 0.0, -0.326, -0.932, 0.132, 192.0, 0.0, 0.0, 0.0, 0.0, 0.0, 0.0, 0.0, 0.0, 0.0, 1.652240138116614E9, 0.0, 2022-05-10 22:35:38.116
49.0, 0.0, 0.0, 0.0, 0.0, -13345.35489623009, 952.2737207739021, 0.0, 0.0, -0.326, -0.932, 0.132, 192.0, 0.0, 0.0, 0.0, 0.0, 0.0, 0.0, 0.0, 0.0, 0.0, 1.6522401381166196E9, 0.0, 2022-05-10 22:35:38.116
50.0, 0.0, 0.0, 0.0, 0.0, -13347.299497997701, 953.8830463746842, 0.0, 0.0, -0.326, -0.932, 0.132, 192.0, 0.0, 0.0, 0.0, 0.0, 0.0, 0.0, 0.0, 0.0, 0.0, 1.652240138116624E9, 0.0, 2022-05-10 22:35:38.116
51.0, 0.0, 0.0, 0.0, 0.0, -13363.571567961166, 927.6420983841538, 0.0, 0.0, -0.326, -0.932, 0.132, 192.0, 0.0, 0.0, 0.0, 0.0, 0.0, 0.0, 0.0, 0.0, 0.0, 1.652240138116629E9, 0.0, 2022-05-10 22:35:38.116
52.0, 0.0, 0.0, 0.0, 0.0, -13359.056515581193, 914.0969412442377, 0.0, 0.0, -0.326, -0.932, 0.132, 192.0, 0.0, 0.0, 0.0, 0.0, 0.0, 0.0, 0.0, 0.0, 0.0, 1.6522401381166327E9, 0.0, 2022-05-10 22:35:38.116
53.0, 0.0, 0.0, 0.0, 0.0, -13322.667875607953, 948.2504067719468, 0.0, 0.0, -0.328, -0.924, 0.136, 192.0, 245.0, 192.0, 227.0, 32.0, 4.0, 64.0, 0.0, 0.0, 0.0, 1.6522401381166372E9, 0.0, 2022-05-10 22:35:38.116
54.0, 0.0, 0.0, 0.0, 0.0, -13313.235439447813, 960.2979970333573, 0.0, 0.0, -0.328, -0.924, 0.136, 192.0, 0.0, 0.0, 0.0, 0.0, 0.0, 0.0, 0.0, 0.0, 0.0, 1.6522401381166418E9, 0.0, 2022-05-10 22:35:38.116
55.0, 0.0, 0.0, 0.0, 0.0, -13309.882677779518, 952.5866451962764, 0.0, 0.0, -0.328, -0.924, 0.136, 192.0, 0.0, 0.0, 0.0, 0.0, 0.0, 0.0, 0.0, 0.0, 0.0, 1.652240138116646E9, 0.0, 2022-05-10 22:35:38.116
56.0, 0.0, 0.0, 0.0, 0.0, -13310.687340579909, 941.4554764575335, 0.0, 0.0, -0.328, -0.924, 0.136, 192.0, 0.0, 0.0, 0.0, 0.0, 0.0, 0.0, 0.0, 0.0, 0.0, 1.65224013811665E9, 0.0, 2022-05-10 22:35:38.116
57.0, 0.0, 0.0, 0.0, 0.0, -13299.846744519085, 943.7800578808855, 0.0, 0.0, -0.328, -0.924, 0.136, 192.0, 0.0, 0.0, 0.0, 0.0, 0.0, 0.0, 0.0, 0.0, 0.0, 1.6522401381166544E9, 0.0, 2022-05-10 22:35:38.116
58.0, 0.0, 0.0, 0.0, 0.0, -13282.948825710873, 948.0045375829385, 0.0, 0.0, -0.328, -0.924, 0.136, 192.0, 0.0, 0.0, 0.0, 0.0, 0.0, 0.0, 0.0, 0.0, 0.0, 1.6522401381166584E9, 0.0, 2022-05-10 22:35:38.116
59.0, 0.0, 0.0, 0.0, 0.0, -13295.286988650203, 940.2931857458575, 0.0, 0.0, -0.328, -0.924, 0.136, 192.0, 0.0, 0.0, 0.0, 0.0, 0.0, 0.0, 0.0, 0.0, 0.0, 1.6522401381166627E9, 0.0, 2022-05-10 22:35:38.116
60.0, 0.0, 0.0, 0.0, 0.0, -13317.996361016794, 924.825778582785, 0.0, 0.0, -0.328, -0.924, 0.136, 192.0, 0.0, 0.0, 0.0, 0.0, 0.0, 0.0, 0.0, 0.0, 0.0, 1.6522401381166673E9, 0.0, 2022-05-10 22:35:38.116
61.0, 0.0, 0.0, 0.0, 0.0, -13326.981762287827, 915.1027697447264, 0.0, 0.0, -0.328, -0.924, 0.136, 192.0, 0.0, 0.0, 0.0, 0.0, 0.0, 0.0, 0.0, 0.0, 0.0, 1.652240138116671E9, 0.0, 2022-05-10 22:35:38.116
62.0, 0.0, 0.0, 0.0, 0.0, -13331.318000712157, 908.2854876858578, 0.0, 0.0, -0.328, -0.924, 0.136, 192.0, 0.0, 0.0, 0.0, 0.0, 0.0, 0.0, 0.0, 0.0, 0.0, 1.6522401381166751E9, 0.0, 2022-05-10 22:35:38.116
63.0, 0.0, 0.0, 0.0, 0.0, -13337.598840904098, 896.4390631245451, 0.0, 0.0, -0.322, -0.928, 0.136, 192.0, 245.0, 240.0, 227.0, 0.0, 4.0, 64.0, 0.0, 0.0, 0.0, 1.6522401381166797E9, 0.0, 2022-05-10 22:35:38.116
64.0, 0.0, 0.0, 0.0, 0.0, -13310.441471390901, 927.5750431507878, 0.0, 0.0, -0.322, -0.928, 0.136, 192.0, 0.0, 0.0, 0.0, 0.0, 0.0, 0.0, 0.0, 0.0, 0.0, 1.6522401381166835E9, 0.0, 2022-05-10 22:35:38.116
0.0, 0.0, 0.0, 0.0, 0.0, 0.0, 0.0, 0.0, 0.0, -0.324, -0.932, 0.14400000000000002, 192.0, 245.0, 224.0, 226.0, 224.0, 4.0, 128.0, 0.0, 0.0, 0.0, 1.6522401381964307E9, 0.0, 2022-05-10 22:35:38.196
1.0, 0.0, 0.0, 0.0, 0.0, -13373.831018666151, 1012.176395914125, 0.0, 0.0, -0.324, -0.932, 0.14400000000000002, 192.0, 0.0, 0.0, 0.0, 0.0, 0.0, 0.0, 0.0, 0.0, 0.0, 1.652240138673048E9, 0.0, 2022-05-10 22:35:38.673
2.0, 0.0, 0.0, 0.0, 0.0, -13377.720222201375, 1008.242488889991, 0.0, 0.0, -0.324, -0.932, 0.14400000000000002, 192.0, 0.0, 0.0, 0.0, 0.0, 0.0, 0.0, 0.0, 0.0, 0.0, 1.6522401386732247E9, 0.0, 2022-05-10 22:35:38.673
3.0, 0.0, 0.0, 0.0, 0.0, -13395.199286365425, 988.0141601579381, 0.0, 0.0, -0.324, -0.932, 0.14400000000000002, 192.0, 0.0, 0.0, 0.0, 0.0, 0.0, 0.0, 0.0, 0.0, 0.0, 1.6522401386732297E9, 0.0, 2022-05-10 22:35:38.673
4.0, 0.0, 0.0, 0.0, 0.0, -13373.428687265956, 1010.7682360134406, 0.0, 0.0, -0.324, -0.932, 0.14400000000000002, 192.0, 0.0, 0.0, 0.0, 0.0, 0.0, 0.0, 0.0, 0.0, 0.0, 1.6522401386732345E9, 0.0, 2022-05-10 22:35:38.673
5.0, 0.0, 0.0, 0.0, 0.0, -13358.78829464773, 1029.722515311541, 0.0, 0.0, -0.324, -0.932, 0.14400000000000002, 192.0, 0.0, 0.0, 0.0, 0.0, 0.0, 0.0, 0.0, 0.0, 0.0, 1.6522401386732483E9, 0.0, 2022-05-10 22:35:38.673
6.0, 0.0, 0.0, 0.0, 0.0, -13382.905826915006, 1006.1190731667368, 0.0, 0.0, -0.324, -0.932, 0.14400000000000002, 192.0, 0.0, 0.0, 0.0, 0.0, 0.0, 0.0, 0.0, 0.0, 0.0, 1.6522401386732528E9, 0.0, 2022-05-10 22:35:38.673
7.0, 0.0, 0.0, 0.0, 0.0, -13374.881550655551, 1009.8294627463177, 0.0, 0.0, -0.324, -0.932, 0.14400000000000002, 192.0, 0.0, 0.0, 0.0, 0.0, 0.0, 0.0, 0.0, 0.0, 0.0, 1.652240138673257E9, 0.0, 2022-05-10 22:35:38.673
8.0, 0.0, 0.0, 0.0, 0.0, -13345.153730529992, 1036.3833351592225, 0.0, 0.0, -0.324, -0.936, 0.148, 192.0, 245.0, 224.0, 226.0, 192.0, 4.0, 160.0, 0.0, 0.0, 0.0, 1.652240138673262E9, 0.0, 2022-05-10 22:35:38.673
9.0, 0.0, 0.0, 0.0, 0.0, -13347.902995097995, 1036.0927624813037, 0.0, 0.0, -0.324, -0.936, 0.148, 192.0, 0.0, 0.0, 0.0, 0.0, 0.0, 0.0, 0.0, 0.0, 0.0, 1.6522401386732664E9, 0.0, 2022-05-10 22:35:38.673
10.0, 0.0, 0.0, 0.0, 0.0, -13353.960317845384, 1031.2200821900467, 0.0, 0.0, -0.324, -0.936, 0.148, 192.0, 0.0, 0.0, 0.0, 0.0, 0.0, 0.0, 0.0, 0.0, 0.0, 1.6522401386732712E9, 0.0, 2022-05-10 22:35:38.673
11.0, 0.0, 0.0, 0.0, 0.0, -13365.002079606305, 1018.4795878505216, 0.0, 0.0, -0.324, -0.936, 0.148, 192.0, 0.0, 0.0, 0.0, 0.0, 0.0, 0.0, 0.0, 0.0, 0.0, 1.6522401386732757E9, 0.0, 2022-05-10 22:35:38.673
12.0, 0.0, 0.0, 0.0, 0.0, -13348.282974753736, 1033.075276979837, 0.0, 0.0, -0.324, -0.936, 0.148, 192.0, 0.0, 0.0, 0.0, 0.0, 0.0, 0.0, 0.0, 0.0, 0.0, 1.6522401386732805E9, 0.0, 2022-05-10 22:35:38.673
13.0, 0.0, 0.0, 0.0, 0.0, -13329.596916389099, 1051.6719283666525, 0.0, 0.0, -0.324, -0.936, 0.148, 192.0, 0.0, 0.0, 0.0, 0.0, 0.0, 0.0, 0.0, 0.0, 0.0, 1.6522401386732848E9, 0.0, 2022-05-10 22:35:38.673
14.0, 0.0, 0.0, 0.0, 0.0, -13339.811663605175, 1035.9363002701164, 0.0, 0.0, -0.324, -0.936, 0.148, 192.0, 0.0, 0.0, 0.0, 0.0, 0.0, 0.0, 0.0, 0.0, 0.0, 1.6522401386732893E9, 0.0, 2022-05-10 22:35:38.673
15.0, 0.0, 0.0, 0.0, 0.0, -13327.652314621488, 1048.4756289095437, 0.0, 0.0, -0.324, -0.936, 0.148, 192.0, 0.0, 0.0, 0.0, 0.0, 0.0, 0.0, 0.0, 0.0, 0.0, 1.652240138673294E9, 0.0, 2022-05-10 22:35:38.673
16.0, 0.0, 0.0, 0.0, 0.0, -13360.576434204155, 1017.9878494725049, 0.0, 0.0, -0.324, -0.936, 0.148, 192.0, 0.0, 0.0, 0.0, 0.0, 0.0, 0.0, 0.0, 0.0, 0.0, 1.6522401386732986E9, 0.0, 2022-05-10 22:35:38.673
17.0, 0.0, 0.0, 0.0, 0.0, -13398.216771866892, 978.8722966757175, 0.0, 0.0, -0.332, -0.9380000000000001, 0.14200000000000002, 192.0, 245.0, 160.0, 226.0, 176.0, 4.0, 112.0, 0.0, 0.0, 0.0, 1.6522401386733031E9, 0.0, 2022-05-10 22:35:38.673
18.0, 0.0, 0.0, 0.0, 0.0, -13390.706585729908, 990.8751834482174, 0.0, 0.0, -0.332, -0.9380000000000001, 0.14200000000000002, 192.0, 0.0, 0.0, 0.0, 0.0, 0.0, 0.0, 0.0, 0.0, 0.0, 1.6522401386733077E9, 0.0, 2022-05-10 22:35:38.673
19.0, 0.0, 0.0, 0.0, 0.0, -13379.038975124238, 1003.6603812766531, 0.0, 0.0, -0.332, -0.9380000000000001, 0.14200000000000002, 192.0, 0.0, 0.0, 0.0, 0.0, 0.0, 0.0, 0.0, 0.0, 0.0, 1.6522401386733124E9, 0.0, 2022-05-10 22:35:38.673
20.0, 0.0, 0.0, 0.0, 0.0, -13370.41120176449, 1009.0471516903821, 0.0, 0.0, -0.332, -0.9380000000000001, 0.14200000000000002, 192.0, 0.0, 0.0, 0.0, 0.0, 0.0, 0.0, 0.0, 0.0, 0.0, 1.6522401386733167E9, 0.0, 2022-05-10 22:35:38.673
21.0, 0.0, 0.0, 0.0, 0.0, -13373.473390754867, 1005.0685411773374, 0.0, 0.0, -0.332, -0.9380000000000001, 0.14200000000000002, 192.0, 0.0, 0.0, 0.0, 0.0, 0.0, 0.0, 0.0, 0.0, 0.0, 1.6522401386733215E9, 0.0, 2022-05-10 22:35:38.673
22.0, 0.0, 0.0, 0.0, 0.0, -13381.207094336403, 997.759520740452, 0.0, 0.0, -0.332, -0.9380000000000001, 0.14200000000000002, 192.0, 0.0, 0.0, 0.0, 0.0, 0.0, 0.0, 0.0, 0.0, 0.0, 1.652240138673326E9, 0.0, 2022-05-10 22:35:38.673
23.0, 0.0, 0.0, 0.0, 0.0, -13392.69589098643, 985.1754886121141, 0.0, 0.0, -0.332, -0.9380000000000001, 0.14200000000000002, 192.0, 0.0, 0.0, 0.0, 0.0, 0.0, 0.0, 0.0, 0.0, 0.0, 1.6522401386733305E9, 0.0, 2022-05-10 22:35:38.673
24.0, 0.0, 0.0, 0.0, 0.0, -13364.577396461655, 1016.0879511938037, 0.0, 0.0, -0.332, -0.9380000000000001, 0.14200000000000002, 192.0, 0.0, 0.0, 0.0, 0.0, 0.0, 0.0, 0.0, 0.0, 0.0, 1.6522401386733353E9, 0.0, 2022-05-10 22:35:38.673
25.0, 0.0, 0.0, 0.0, 0.0, -13329.887489067018, 1047.7156695980632, 0.0, 0.0, -0.332, -0.9380000000000001, 0.14200000000000002, 192.0, 0.0, 0.0, 0.0, 0.0, 0.0, 0.0, 0.0, 0.0, 0.0, 1.6522401386733396E9, 0.0, 2022-05-10 22:35:38.673
26.0, 0.0, 0.0, 0.0, 0.0, -13331.094483267605, 1044.497018396499, 0.0, 0.0, -0.332, -0.9380000000000001, 0.14200000000000002, 192.0, 0.0, 0.0, 0.0, 0.0, 0.0, 0.0, 0.0, 0.0, 0.0, 1.652240138673344E9, 0.0, 2022-05-10 22:35:38.673
27.0, 0.0, 0.0, 0.0, 0.0, -13336.257736236781, 1037.3221084263455, 0.0, 0.0, -0.332, -0.932, 0.148, 192.0, 245.0, 160.0, 226.0, 224.0, 4.0, 160.0, 0.0, 0.0, 0.0, 1.6522401386733503E9, 0.0, 2022-05-10 22:35:38.673
28.0, 0.0, 0.0, 0.0, 0.0, -13339.521090927255, 1033.6787740801303, 0.0, 0.0, -0.332, -0.932, 0.148, 192.0, 0.0, 0.0, 0.0, 0.0, 0.0, 0.0, 0.0, 0.0, 0.0, 1.652240138673355E9, 0.0, 2022-05-10 22:35:38.673
29.0, 0.0, 0.0, 0.0, 0.0, -13344.013791562771, 1033.6340705912198, 0.0, 0.0, -0.332, -0.932, 0.148, 192.0, 0.0, 0.0, 0.0, 0.0, 0.0, 0.0, 0.0, 0.0, 0.0, 1.6522401386733596E9, 0.0, 2022-05-10 22:35:38.673
30.0, 0.0, 0.0, 0.0, 0.0, -13374.233350066346, 1003.4592155765553, 0.0, 0.0, -0.332, -0.932, 0.148, 192.0, 0.0, 0.0, 0.0, 0.0, 0.0, 0.0, 0.0, 0.0, 0.0, 1.652240138673364E9, 0.0, 2022-05-10 22:35:38.673
31.0, 0.0, 0.0, 0.0, 0.0, -13361.291690026725, 1015.7526750269742, 0.0, 0.0, -0.332, -0.932, 0.148, 192.0, 0.0, 0.0, 0.0, 0.0, 0.0, 0.0, 0.0, 0.0, 0.0, 1.6522401386733687E9, 0.0, 2022-05-10 22:35:38.673
32.0, 0.0, 0.0, 0.0, 0.0, -13356.731934157842, 1019.1501401841808, 0.0, 0.0, -0.332, -0.932, 0.148, 192.0, 0.0, 0.0, 0.0, 0.0, 0.0, 0.0, 0.0, 0.0, 0.0, 1.6522401386733732E9, 0.0, 2022-05-10 22:35:38.673
33.0, 0.0, 0.0, 0.0, 0.0, -13365.136190073037, 1013.9421837260943, 0.0, 0.0, -0.332, -0.932, 0.148, 192.0, 0.0, 0.0, 0.0, 0.0, 0.0, 0.0, 0.0, 0.0, 0.0, 1.6522401386733816E9, 0.0, 2022-05-10 22:35:38.673
34.0, 0.0, 0.0, 0.0, 0.0, -13321.460881407367, 1059.4279836926441, 0.0, 0.0, -0.332, -0.932, 0.148, 192.0, 0.0, 0.0, 0.0, 0.0, 0.0, 0.0, 0.0, 0.0, 0.0, 1.652240138673386E9, 0.0, 2022-05-10 22:35:38.673
35.0, 0.0, 0.0, 0.0, 0.0, -13302.506602109266, 1079.0304635799484, 0.0, 0.0, -0.332, -0.932, 0.148, 192.0, 0.0, 0.0, 0.0, 0.0, 0.0, 0.0, 0.0, 0.0, 0.0, 1.6522401386733909E9, 0.0, 2022-05-10 22:35:38.673
36.0, 0.0, 0.0, 0.0, 0.0, -13328.479329166334, 1051.6495766221974, 0.0, 0.0, -0.332, -0.932, 0.148, 192.0, 0.0, 0.0, 0.0, 0.0, 0.0, 0.0, 0.0, 0.0, 0.0, 1.6522401386733952E9, 0.0, 2022-05-10 22:35:38.673
37.0, 0.0, 0.0, 0.0, 0.0, -13314.040102248206, 1061.5737511603536, 0.0, 0.0, -0.332, -0.934, 0.156, 192.0, 245.0, 160.0, 226.0, 208.0, 4.0, 224.0, 0.0, 0.0, 0.0, 1.6522401386733997E9, 0.0, 2022-05-10 22:35:38.673
38.0, 0.0, 0.0, 0.0, 0.0, -13330.401579189489, 1051.0013760329934, 0.0, 0.0, -0.332, -0.934, 0.156, 192.0, 0.0, 0.0, 0.0, 0.0, 0.0, 0.0, 0.0, 0.0, 0.0, 1.6522401386734047E9, 0.0, 2022-05-10 22:35:38.673
39.0, 0.0, 0.0, 0.0, 0.0, -13346.986573575328, 1040.8983875391946, 0.0, 0.0, -0.332, -0.934, 0.156, 192.0, 0.0, 0.0, 0.0, 0.0, 0.0, 0.0, 0.0, 0.0, 0.0, 1.652240138673411E9, 0.0, 2022-05-10 22:35:38.673
40.0, 0.0, 0.0, 0.0, 0.0, -13337.487082181822, 1045.3463846858008, 0.0, 0.0, -0.332, -0.934, 0.156, 192.0, 0.0, 0.0, 0.0, 0.0, 0.0, 0.0, 0.0, 0.0, 0.0, 1.6522401386734152E9, 0.0, 2022-05-10 22:35:38.673
41.0, 0.0, 0.0, 0.0, 0.0, -13346.49483519731, 1039.981966016527, 0.0, 0.0, -0.332, -0.934, 0.156, 192.0, 0.0, 0.0, 0.0, 0.0, 0.0, 0.0, 0.0, 0.0, 0.0, 1.65224013867342E9, 0.0, 2022-05-10 22:35:38.673
42.0, 0.0, 0.0, 0.0, 0.0, -13346.807759619685, 1040.3172421833567, 0.0, 0.0, -0.332, -0.934, 0.156, 192.0, 0.0, 0.0, 0.0, 0.0, 0.0, 0.0, 0.0, 0.0, 0.0, 1.6522401386734245E9, 0.0, 2022-05-10 22:35:38.673
43.0, 0.0, 0.0, 0.0, 0.0, -13342.851500851095, 1039.2220067050466, 0.0, 0.0, -0.332, -0.934, 0.156, 192.0, 0.0, 0.0, 0.0, 0.0, 0.0, 0.0, 0.0, 0.0, 0.0, 1.6522401386734293E9, 0.0, 2022-05-10 22:35:38.673
44.0, 0.0, 0.0, 0.0, 0.0, -13337.822358348652, 1046.9780620310382, 0.0, 0.0, -0.332, -0.934, 0.156, 192.0, 0.0, 0.0, 0.0, 0.0, 0.0, 0.0, 0.0, 0.0, 0.0, 1.6522401386734335E9, 0.0, 2022-05-10 22:35:38.673
45.0, 0.0, 0.0, 0.0, 0.0, -13347.433608464433, 1038.8867305382169, 0.0, 0.0, -0.332, -0.934, 0.156, 192.0, 0.0, 0.0, 0.0, 0.0, 0.0, 0.0, 0.0, 0.0, 0.0, 1.6522401386734383E9, 0.0, 2022-05-10 22:35:38.673
46.0, 0.0, 0.0, 0.0, 0.0, -13337.934117070929, 1041.211311961569, 0.0, 0.0, -0.332, -0.934, 0.156, 192.0, 0.0, 0.0, 0.0, 0.0, 0.0, 0.0, 0.0, 0.0, 0.0, 1.652240138673443E9, 0.0, 2022-05-10 22:35:38.673
47.0, 0.0, 0.0, 0.0, 0.0, -13339.744608371808, 1033.209387446569, 0.0, 0.0, -0.33, -0.932, 0.152, 192.0, 245.0, 176.0, 226.0, 224.0, 4.0, 192.0, 0.0, 0.0, 0.0, 1.6522401386734476E9, 0.0, 2022-05-10 22:35:38.673
48.0, 0.0, 0.0, 0.0, 0.0, -13340.996306061304, 1035.3328031698231, 0.0, 0.0, -0.33, -0.932, 0.152, 192.0, 0.0, 0.0, 0.0, 0.0, 0.0, 0.0, 0.0, 0.0, 0.0, 1.6522401386734543E9, 0.0, 2022-05-10 22:35:38.673
49.0, 0.0, 0.0, 0.0, 0.0, -13349.512320698777, 1026.2579949209685, 0.0, 0.0, -0.33, -0.932, 0.152, 192.0, 0.0, 0.0, 0.0, 0.0, 0.0, 0.0, 0.0, 0.0, 0.0, 1.652240138673459E9, 0.0, 2022-05-10 22:35:38.673
50.0, 0.0, 0.0, 0.0, 0.0, -13344.349067729601, 1028.4708176220438, 0.0, 0.0, -0.33, -0.932, 0.152, 192.0, 0.0, 0.0, 0.0, 0.0, 0.0, 0.0, 0.0, 0.0, 0.0, 1.6522401386734636E9, 0.0, 2022-05-10 22:35:38.673
51.0, 0.0, 0.0, 0.0, 0.0, -13323.11491049706, 1051.7389836000186, 0.0, 0.0, -0.33, -0.932, 0.152, 192.0, 0.0, 0.0, 0.0, 0.0, 0.0, 0.0, 0.0, 0.0, 0.0, 1.6522401386734684E9, 0.0, 2022-05-10 22:35:38.673
52.0, 0.0, 0.0, 0.0, 0.0, -13341.063361294671, 1037.3221084263455, 0.0, 0.0, -0.33, -0.932, 0.152, 192.0, 0.0, 0.0, 0.0, 0.0, 0.0, 0.0, 0.0, 0.0, 0.0, 1.652240138673473E9, 0.0, 2022-05-10 22:35:38.673
53.0, 0.0, 0.0, 0.0, 0.0, -13340.661029894476, 1039.8031520608845, 0.0, 0.0, -0.33, -0.932, 0.152, 192.0, 0.0, 0.0, 0.0, 0.0, 0.0, 0.0, 0.0, 0.0, 0.0, 1.6522401386734774E9, 0.0, 2022-05-10 22:35:38.673
54.0, 0.0, 0.0, 0.0, 0.0, -13347.143035786516, 1032.7176490685522, 0.0, 0.0, -0.33, -0.932, 0.152, 192.0, 0.0, 0.0, 0.0, 0.0, 0.0, 0.0, 0.0, 0.0, 0.0, 1.652240138673482E9, 0.0, 2022-05-10 22:35:38.673
55.0, 0.0, 0.0, 0.0, 0.0, -13378.83780942414, 1004.1074161657592, 0.0, 0.0, -0.33, -0.932, 0.152, 192.0, 0.0, 0.0, 0.0, 0.0, 0.0, 0.0, 0.0, 0.0, 0.0, 1.6522401386734877E9, 0.0, 2022-05-10 22:35:38.673
56.0, 0.0, 0.0, 0.0, 0.0, -13386.817382194684, 997.178375384614, 0.0, 0.0, -0.33, -0.932, 0.152, 192.0, 0.0, 0.0, 0.0, 0.0, 0.0, 0.0, 0.0, 0.0, 0.0, 1.652240138673492E9, 0.0, 2022-05-10 22:35:38.673
57.0, 0.0, 0.0, 0.0, 0.0, -13361.35874526009, 1021.9441082410942, 0.0, 0.0, -0.33, -0.934, 0.15, 192.0, 245.0, 176.0, 226.0, 208.0, 4.0, 176.0, 0.0, 0.0, 0.0, 1.6522401386734965E9, 0.0, 2022-05-10 22:35:38.673
58.0, 0.0, 0.0, 0.0, 0.0, -13329.440454177911, 1057.371623202756, 0.0, 0.0, -0.33, -0.934, 0.15, 192.0, 0.0, 0.0, 0.0, 0.0, 0.0, 0.0, 0.0, 0.0, 0.0, 1.6522401386735013E9, 0.0, 2022-05-10 22:35:38.673
59.0, 0.0, 0.0, 0.0, 0.0, -13346.07015205266, 1040.0266695054377, 0.0, 0.0, -0.33, -0.934, 0.15, 192.0, 0.0, 0.0, 0.0, 0.0, 0.0, 0.0, 0.0, 0.0, 0.0, 1.6522401386735058E9, 0.0, 2022-05-10 22:35:38.673
60.0, 0.0, 0.0, 0.0, 0.0, -13370.478256997856, 1014.1880529151026, 0.0, 0.0, -0.33, -0.934, 0.15, 192.0, 0.0, 0.0, 0.0, 0.0, 0.0, 0.0, 0.0, 0.0, 0.0, 1.6522401386735103E9, 0.0, 2022-05-10 22:35:38.673
61.0, 0.0, 0.0, 0.0, 0.0, -13368.310137785691, 1015.7973785158848, 0.0, 0.0, -0.33, -0.934, 0.15, 192.0, 0.0, 0.0, 0.0, 0.0, 0.0, 0.0, 0.0, 0.0, 0.0, 1.6522401386735148E9, 0.0, 2022-05-10 22:35:38.673
62.0, 0.0, 0.0, 0.0, 0.0, -13372.758134932297, 1010.4329598466111, 0.0, 0.0, -0.33, -0.934, 0.15, 192.0, 0.0, 0.0, 0.0, 0.0, 0.0, 0.0, 0.0, 0.0, 0.0, 1.6522401386735194E9, 0.0, 2022-05-10 22:35:38.673
63.0, 0.0, 0.0, 0.0, 0.0, -13348.171216031458, 1032.561186857365, 0.0, 0.0, -0.33, -0.934, 0.15, 192.0, 0.0, 0.0, 0.0, 0.0, 0.0, 0.0, 0.0, 0.0, 0.0, 1.652240138673524E9, 0.0, 2022-05-10 22:35:38.673
64.0, 0.0, 0.0, 0.0, 0.0, -13328.97106754435, 1048.3638701872671, 0.0, 0.0, -0.33, -0.934, 0.15, 192.0, 0.0, 0.0, 0.0, 0.0, 0.0, 0.0, 0.0, 0.0, 0.0, 1.6522401386735284E9, 0.0, 2022-05-10 22:35:38.673
65.0, 0.0, 0.0, 0.0, 0.0, -13312.430776647423, 1066.8040593628955, 0.0, 0.0, -0.33, -0.934, 0.15, 192.0, 0.0, 0.0, 0.0, 0.0, 0.0, 0.0, 0.0, 0.0, 0.0, 1.6522401386735332E9, 0.0, 2022-05-10 22:35:38.673
66.0, 0.0, 0.0, 0.0, 0.0, -13309.212125445858, 1071.788498376429, 0.0, 0.0, -0.33, -0.934, 0.15, 192.0, 0.0, 0.0, 0.0, 0.0, 0.0, 0.0, 0.0, 0.0, 0.0, 1.6522401386735375E9, 0.0, 2022-05-10 22:35:38.673
67.0, 0.0, 0.0, 0.0, 0.0, -13313.995398759294, 1067.631073907742, 0.0, 0.0, -0.326, -0.932, 0.15, 192.0, 245.0, 208.0, 226.0, 224.0, 4.0, 176.0, 0.0, 0.0, 0.0, 1.652240138673542E9, 0.0, 2022-05-10 22:35:38.673
68.0, 0.0, 0.0, 0.0, 0.0, -13320.92443954044, 1062.2890069829234, 0.0, 0.0, -0.326, -0.932, 0.15, 192.0, 0.0, 0.0, 0.0, 0.0, 0.0, 0.0, 0.0, 0.0, 0.0, 1.6522401386735468E9, 0.0, 2022-05-10 22:35:38.673
69.0, 0.0, 0.0, 0.0, 0.0, -13326.087692509616, 1054.6447103792084, 0.0, 0.0, -0.326, -0.932, 0.15, 192.0, 0.0, 0.0, 0.0, 0.0, 0.0, 0.0, 0.0, 0.0, 0.0, 1.6522401386735528E9, 0.0, 2022-05-10 22:35:38.673
70.0, 0.0, 0.0, 0.0, 0.0, -13347.366553231068, 1031.1306752122255, 0.0, 0.0, -0.326, -0.932, 0.15, 192.0, 0.0, 0.0, 0.0, 0.0, 0.0, 0.0, 0.0, 0.0, 0.0, 1.6522401386735575E9, 0.0, 2022-05-10 22:35:38.673
71.0, 0.0, 0.0, 0.0, 0.0, -13321.237363962813, 1058.7574313589848, 0.0, 0.0, -0.326, -0.932, 0.15, 192.0, 0.0, 0.0, 0.0, 0.0, 0.0, 0.0, 0.0, 0.0, 0.0, 1.652240138673562E9, 0.0, 2022-05-10 22:35:38.673
72.0, 0.0, 0.0, 0.0, 0.0, -13314.174212714937, 1059.6962046261078, 0.0, 0.0, -0.326, -0.932, 0.15, 192.0, 0.0, 0.0, 0.0, 0.0, 0.0, 0.0, 0.0, 0.0, 0.0, 1.6522401386735663E9, 0.0, 2022-05-10 22:35:38.673
73.0, 0.0, 0.0, 0.0, 0.0, -13347.478311953344, 1026.0121257319602, 0.0, 0.0, -0.326, -0.932, 0.15, 192.0, 0.0, 0.0, 0.0, 0.0, 0.0, 0.0, 0.0, 0.0, 0.0, 1.652240138673571E9, 0.0, 2022-05-10 22:35:38.673
74.0, 0.0, 0.0, 0.0, 0.0, -13363.012774349783, 1013.9198319816389, 0.0, 0.0, -0.326, -0.932, 0.15, 192.0, 0.0, 0.0, 0.0, 0.0, 0.0, 0.0, 0.0, 0.0, 0.0, 1.6522401386735756E9, 0.0, 2022-05-10 22:35:38.673
75.0, 0.0, 0.0, 0.0, 0.0, -13378.055498368205, 1000.4193783306335, 0.0, 0.0, -0.326, -0.932, 0.15, 192.0, 0.0, 0.0, 0.0, 0.0, 0.0, 0.0, 0.0, 0.0, 0.0, 1.65224013867358E9, 0.0, 2022-05-10 22:35:38.673
76.0, 0.0, 0.0, 0.0, 0.0, -13384.381042049055, 995.144366639181, 0.0, 0.0, -0.326, -0.932, 0.15, 192.0, 0.0, 0.0, 0.0, 0.0, 0.0, 0.0, 0.0, 0.0, 0.0, 1.6522401386735847E9, 0.0, 2022-05-10 22:35:38.673
77.0, 0.0, 0.0, 0.0, 0.0, -13353.98266958984, 1024.8498350202842, 0.0, 0.0, -0.322, -0.926, 0.148, 192.0, 245.0, 240.0, 227.0, 16.0, 4.0, 160.0, 0.0, 0.0, 0.0, 1.6522401386735897E9, 0.0, 2022-05-10 22:35:38.673
78.0, 0.0, 0.0, 0.0, 0.0, -13350.048762565704, 1029.8119222893622, 0.0, 0.0, -0.322, -0.926, 0.148, 192.0, 0.0, 0.0, 0.0, 0.0, 0.0, 0.0, 0.0, 0.0, 0.0, 1.652240138673594E9, 0.0, 2022-05-10 22:35:38.673
79.0, 0.0, 0.0, 0.0, 0.0, -13343.097370040105, 1035.4222101476444, 0.0, 0.0, -0.322, -0.926, 0.148, 192.0, 0.0, 0.0, 0.0, 0.0, 0.0, 0.0, 0.0, 0.0, 0.0, 1.6522401386735985E9, 0.0, 2022-05-10 22:35:38.673
80.0, 0.0, 0.0, 0.0, 0.0, -13338.314096726668, 1043.3123759403677, 0.0, 0.0, -0.322, -0.926, 0.148, 192.0, 0.0, 0.0, 0.0, 0.0, 0.0, 0.0, 0.0, 0.0, 0.0, 1.6522401386736033E9, 0.0, 2022-05-10 22:35:38.673
81.0, 0.0, 0.0, 0.0, 0.0, -13311.179078957926, 1074.5377629444317, 0.0, 0.0, -0.322, -0.926, 0.148, 192.0, 0.0, 0.0, 0.0, 0.0, 0.0, 0.0, 0.0, 0.0, 0.0, 1.6522401386736088E9, 0.0, 2022-05-10 22:35:38.673
82.0, 0.0, 0.0, 0.0, 0.0, -13303.847706776585, 1084.1266613157584, 0.0, 0.0, -0.322, -0.926, 0.148, 192.0, 0.0, 0.0, 0.0, 0.0, 0.0, 0.0, 0.0, 0.0, 0.0, 1.6522401386736147E9, 0.0, 2022-05-10 22:35:38.673
83.0, 0.0, 0.0, 0.0, 0.0, -13315.314151682158, 1070.4026902202, 0.0, 0.0, -0.322, -0.926, 0.148, 192.0, 0.0, 0.0, 0.0, 0.0, 0.0, 0.0, 0.0, 0.0, 0.0, 1.6522401386736207E9, 0.0, 2022-05-10 22:35:38.673
84.0, 0.0, 0.0, 0.0, 0.0, -13335.542480414211, 1047.5815591313315, 0.0, 0.0, -0.322, -0.926, 0.148, 192.0, 0.0, 0.0, 0.0, 0.0, 0.0, 0.0, 0.0, 0.0, 0.0, 1.6522401386736305E9, 0.0, 2022-05-10 22:35:38.673
85.0, 0.0, 0.0, 0.0, 0.0, -13333.620230391054, 1050.7108033550744, 0.0, 0.0, -0.322, -0.926, 0.148, 192.0, 0.0, 0.0, 0.0, 0.0, 0.0, 0.0, 0.0, 0.0, 0.0, 1.6522401386736357E9, 0.0, 2022-05-10 22:35:38.673
86.0, 0.0, 0.0, 0.0, 0.0, -13332.659105379476, 1056.7010708690966, 0.0, 0.0, -0.322, -0.926, 0.148, 192.0, 0.0, 0.0, 0.0, 0.0, 0.0, 0.0, 0.0, 0.0, 0.0, 1.6522401386736495E9, 0.0, 2022-05-10 22:35:38.673
87.0, 0.0, 0.0, 0.0, 0.0, -13316.431738904923, 1073.1519547882026, 0.0, 0.0, -0.328, -0.924, 0.146, 192.0, 245.0, 192.0, 227.0, 32.0, 4.0, 144.0, 0.0, 0.0, 0.0, 1.6522401386736543E9, 0.0, 2022-05-10 22:35:38.673
88.0, 0.0, 0.0, 0.0, 0.0, -13327.272334965746, 1060.8808470822391, 0.0, 0.0, -0.328, -0.924, 0.146, 192.0, 0.0, 0.0, 0.0, 0.0, 0.0, 0.0, 0.0, 0.0, 0.0, 1.652240138673659E9, 0.0, 2022-05-10 22:35:38.673
89.0, 0.0, 0.0, 0.0, 0.0, -13323.204317474881, 1065.0382715509263, 0.0, 0.0, -0.328, -0.924, 0.146, 192.0, 0.0, 0.0, 0.0, 0.0, 0.0, 0.0, 0.0, 0.0, 0.0, 1.6522401386736636E9, 0.0, 2022-05-10 22:35:38.673
90.0, 0.0, 0.0, 0.0, 0.0, -13346.383076475035, 1036.7633148149628, 0.0, 0.0, -0.328, -0.924, 0.146, 192.0, 0.0, 0.0, 0.0, 0.0, 0.0, 0.0, 0.0, 0.0, 0.0, 1.652240138673668E9, 0.0, 2022-05-10 22:35:38.673
91.0, 0.0, 0.0, 0.0, 0.0, -13388.002024650816, 991.9927706709827, 0.0, 0.0, -0.328, -0.924, 0.146, 192.0, 0.0, 0.0, 0.0, 0.0, 0.0, 0.0, 0.0, 0.0, 0.0, 1.652240138673674E9, 0.0, 2022-05-10 22:35:38.673
92.0, 0.0, 0.0, 0.0, 0.0, -13404.65407427002, 974.0219681289159, 0.0, 0.0, -0.328, -0.924, 0.146, 192.0, 0.0, 0.0, 0.0, 0.0, 0.0, 0.0, 0.0, 0.0, 0.0, 1.6522401386736789E9, 0.0, 2022-05-10 22:35:38.673
93.0, 0.0, 0.0, 0.0, 0.0, -13390.952454918917, 985.1754886121141, 0.0, 0.0, -0.328, -0.924, 0.146, 192.0, 0.0, 0.0, 0.0, 0.0, 0.0, 0.0, 0.0, 0.0, 0.0, 1.6522401386736836E9, 0.0, 2022-05-10 22:35:38.673
94.0, 0.0, 0.0, 0.0, 0.0, -13372.445210509923, 1000.7099510085525, 0.0, 0.0, -0.328, -0.924, 0.146, 192.0, 0.0, 0.0, 0.0, 0.0, 0.0, 0.0, 0.0, 0.0, 0.0, 1.652240138673688E9, 0.0, 2022-05-10 22:35:38.673
95.0, 0.0, 0.0, 0.0, 0.0, -13375.865027411584, 996.8430992177844, 0.0, 0.0, -0.328, -0.924, 0.146, 192.0, 0.0, 0.0, 0.0, 0.0, 0.0, 0.0, 0.0, 0.0, 0.0, 1.6522401386736927E9, 0.0, 2022-05-10 22:35:38.673
96.0, 0.0, 0.0, 0.0, 0.0, -13398.552048033722, 977.1512123526588, 0.0, 0.0, -0.33, -0.928, 0.156, 192.0, 245.0, 176.0, 227.0, 0.0, 4.0, 224.0, 0.0, 0.0, 0.0, 1.6522401386736975E9, 0.0, 2022-05-10 22:35:38.673
97.0, 0.0, 0.0, 0.0, 0.0, -13418.959190721416, 957.95106386555, 0.0, 0.0, -0.33, -0.928, 0.156, 192.0, 0.0, 0.0, 0.0, 0.0, 0.0, 0.0, 0.0, 0.0, 0.0, 1.652240138673702E9, 0.0, 2022-05-10 22:35:38.673
98.0, 0.0, 0.0, 0.0, 0.0, -13387.018547894782, 990.3610933257453, 0.0, 0.0, -0.33, -0.928, 0.156, 192.0, 0.0, 0.0, 0.0, 0.0, 0.0, 0.0, 0.0, 0.0, 0.0, 1.6522401386737063E9, 0.0, 2022-05-10 22:35:38.673
99.0, 0.0, 0.0, 0.0, 0.0, -13381.542370503232, 1001.5816690423095, 0.0, 0.0, -0.33, -0.928, 0.156, 192.0, 0.0, 0.0, 0.0, 0.0, 0.0, 0.0, 0.0, 0.0, 0.0, 1.6522401386737268E9, 0.0, 2022-05-10 22:35:38.673
100.0, 0.0, 0.0, 0.0, 0.0, -13390.661882240998, 993.8703172052285, 0.0, 0.0, -0.33, -0.928, 0.156, 192.0, 0.0, 0.0, 0.0, 0.0, 0.0, 0.0, 0.0, 0.0, 0.0, 1.652240138673731E9, 0.0, 2022-05-10 22:35:38.673
101.0, 0.0, 0.0, 0.0, 0.0, -13362.923367371961, 1019.4854163510105, 0.0, 0.0, -0.33, -0.928, 0.156, 192.0, 0.0, 0.0, 0.0, 0.0, 0.0, 0.0, 0.0, 0.0, 0.0, 1.6522401386737354E9, 0.0, 2022-05-10 22:35:38.673
102.0, 0.0, 0.0, 0.0, 0.0, -13363.415105749978, 1020.5583000848652, 0.0, 0.0, -0.33, -0.928, 0.156, 192.0, 0.0, 0.0, 0.0, 0.0, 0.0, 0.0, 0.0, 0.0, 0.0, 1.6522401386737397E9, 0.0, 2022-05-10 22:35:38.673
103.0, 0.0, 0.0, 0.0, 0.0, -13371.55114073171, 1011.8634714917507, 0.0, 0.0, -0.33, -0.928, 0.156, 192.0, 0.0, 0.0, 0.0, 0.0, 0.0, 0.0, 0.0, 0.0, 0.0, 1.6522401386737435E9, 0.0, 2022-05-10 22:35:38.673
104.0, 0.0, 0.0, 0.0, 0.0, -13372.64637621002, 1011.6399540471976, 0.0, 0.0, -0.33, -0.928, 0.156, 192.0, 0.0, 0.0, 0.0, 0.0, 0.0, 0.0, 0.0, 0.0, 0.0, 1.652240138673748E9, 0.0, 2022-05-10 22:35:38.673
105.0, 0.0, 0.0, 0.0, 0.0, -13385.141001360536, 1000.8887649641949, 0.0, 0.0, -0.33, -0.928, 0.156, 192.0, 0.0, 0.0, 0.0, 0.0, 0.0, 0.0, 0.0, 0.0, 0.0, 1.652240138673752E9, 0.0, 2022-05-10 22:35:38.673
106.0, 0.0, 0.0, 0.0, 0.0, -13349.422913720957, 1042.5971201177979, 0.0, 0.0, -0.328, -0.93, 0.156, 192.0, 245.0, 192.0, 226.0, 240.0, 4.0, 224.0, 0.0, 0.0, 0.0, 1.6522401386737561E9, 0.0, 2022-05-10 22:35:38.673
107.0, 0.0, 0.0, 0.0, 0.0, -13346.606593919587, 1048.050945764893, 0.0, 0.0, -0.328, -0.93, 0.156, 192.0, 0.0, 0.0, 0.0, 0.0, 0.0, 0.0, 0.0, 0.0, 0.0, 1.6522401386737604E9, 0.0, 2022-05-10 22:35:38.673
108.0, 0.0, 0.0, 0.0, 0.0, -13375.529751244754, 1015.8644337492507, 0.0, 0.0, -0.328, -0.93, 0.156, 192.0, 0.0, 0.0, 0.0, 0.0, 0.0, 0.0, 0.0, 0.0, 0.0, 1.6522401386737645E9, 0.0, 2022-05-10 22:35:38.673
109.0, 0.0, 0.0, 0.0, 0.0, -13370.567663975677, 1017.5184628389434, 0.0, 0.0, -0.328, -0.93, 0.156, 192.0, 0.0, 0.0, 0.0, 0.0, 0.0, 0.0, 0.0, 0.0, 0.0, 1.6522401386737688E9, 0.0, 2022-05-10 22:35:38.673
110.0, 0.0, 0.0, 0.0, 0.0, -13360.26350978178, 1030.3260124118344, 0.0, 0.0, -0.328, -0.93, 0.156, 192.0, 0.0, 0.0, 0.0, 0.0, 0.0, 0.0, 0.0, 0.0, 0.0, 1.652240138673773E9, 0.0, 2022-05-10 22:35:38.673
111.0, 0.0, 0.0, 0.0, 0.0, -13348.350029987101, 1036.7633148149628, 0.0, 0.0, -0.328, -0.93, 0.156, 192.0, 0.0, 0.0, 0.0, 0.0, 0.0, 0.0, 0.0, 0.0, 0.0, 1.652240138673777E9, 0.0, 2022-05-10 22:35:38.673
112.0, 0.0, 0.0, 0.0, 0.0, -13352.619213178064, 1031.1530269566808, 0.0, 0.0, -0.328, -0.93, 0.156, 192.0, 0.0, 0.0, 0.0, 0.0, 0.0, 0.0, 0.0, 0.0, 0.0, 1.652240138673783E9, 0.0, 2022-05-10 22:35:38.673
113.0, 0.0, 0.0, 0.0, 0.0, -13337.375323459546, 1048.9450155431052, 0.0, 0.0, -0.328, -0.93, 0.156, 192.0, 0.0, 0.0, 0.0, 0.0, 0.0, 0.0, 0.0, 0.0, 0.0, 1.652240138673787E9, 0.0, 2022-05-10 22:35:38.673
114.0, 0.0, 0.0, 0.0, 0.0, -13370.03122210875, 1016.9149657386502, 0.0, 0.0, -0.328, -0.93, 0.156, 192.0, 0.0, 0.0, 0.0, 0.0, 0.0, 0.0, 0.0, 0.0, 0.0, 1.6522401386737912E9, 0.0, 2022-05-10 22:35:38.673
115.0, 0.0, 0.0, 0.0, 0.0, -13406.062234170704, 982.5379827663878, 0.0, 0.0, -0.328, -0.93, 0.156, 192.0, 0.0, 0.0, 0.0, 0.0, 0.0, 0.0, 0.0, 0.0, 0.0, 1.6522401386737957E9, 0.0, 2022-05-10 22:35:38.673
116.0, 0.0, 0.0, 0.0, 0.0, -13384.60455949361, 998.4747765630218, 0.0, 0.0, -0.326, -0.928, 0.154, 192.0, 245.0, 208.0, 227.0, 0.0, 4.0, 208.0, 0.0, 0.0, 0.0, 1.6522401386738E9, 0.0, 2022-05-10 22:35:38.673
117.0, 0.0, 0.0, 0.0, 0.0, -13349.065285809671, 1035.3328031698231, 0.0, 0.0, -0.326, -0.928, 0.154, 192.0, 0.0, 0.0, 0.0, 0.0, 0.0, 0.0, 0.0, 0.0, 0.0, 1.6522401386738043E9, 0.0, 2022-05-10 22:35:38.673
118.0, 0.0, 0.0, 0.0, 0.0, -13359.83882663713, 1026.369753643245, 0.0, 0.0, -0.326, -0.928, 0.154, 192.0, 0.0, 0.0, 0.0, 0.0, 0.0, 0.0, 0.0, 0.0, 0.0, 1.652240138673809E9, 0.0, 2022-05-10 22:35:38.673
119.0, 0.0, 0.0, 0.0, 0.0, -13370.590015720132, 1012.6010790587759, 0.0, 0.0, -0.326, -0.928, 0.154, 192.0, 0.0, 0.0, 0.0, 0.0, 0.0, 0.0, 0.0, 0.0, 0.0, 1.652240138673813E9, 0.0, 2022-05-10 22:35:38.673
120.0, 0.0, 0.0, 0.0, 0.0, -13363.16923656097, 1022.8381780193065, 0.0, 0.0, -0.326, -0.928, 0.154, 192.0, 0.0, 0.0, 0.0, 0.0, 0.0, 0.0, 0.0, 0.0, 0.0, 1.6522401386738176E9, 0.0, 2022-05-10 22:35:38.673
121.0, 0.0, 0.0, 0.0, 0.0, -13340.728085127841, 1045.435791663622, 0.0, 0.0, -0.326, -0.928, 0.154, 192.0, 0.0, 0.0, 0.0, 0.0, 0.0, 0.0, 0.0, 0.0, 0.0, 1.6522401391531427E9, 0.0, 2022-05-10 22:35:39.153
122.0, 0.0, 0.0, 0.0, 0.0, -13347.701829397898, 1039.601986360787, 0.0, 0.0, -0.326, -0.928, 0.154, 192.0, 0.0, 0.0, 0.0, 0.0, 0.0, 0.0, 0.0, 0.0, 0.0, 1.6522401391532123E9, 0.0, 2022-05-10 22:35:39.153
123.0, 0.0, 0.0, 0.0, 0.0, -13340.996306061304, 1046.5310271419319, 0.0, 0.0, -0.326, -0.928, 0.154, 192.0, 0.0, 0.0, 0.0, 0.0, 0.0, 0.0, 0.0, 0.0, 0.0, 1.6522401391533868E9, 0.0, 2022-05-10 22:35:39.153
124.0, 0.0, 0.0, 0.0, 0.0, -13312.564887114155, 1074.135431544236, 0.0, 0.0, -0.326, -0.928, 0.154, 192.0, 0.0, 0.0, 0.0, 0.0, 0.0, 0.0, 0.0, 0.0, 0.0, 1.6522401391533916E9, 0.0, 2022-05-10 22:35:39.153
125.0, 0.0, 0.0, 0.0, 0.0, -13325.707712853875, 1058.2656929809682, 0.0, 0.0, -0.326, -0.928, 0.154, 192.0, 0.0, 0.0, 0.0, 0.0, 0.0, 0.0, 0.0, 0.0, 0.0, 1.652240139153398E9, 0.0, 2022-05-10 22:35:39.153
126.0, 0.0, 0.0, 0.0, 0.0, -13328.479329166334, 1056.2987394689012, 0.0, 0.0, -0.328, -0.928, 0.152, 192.0, 245.0, 192.0, 227.0, 0.0, 4.0, 192.0, 0.0, 0.0, 0.0, 1.652240139153403E9, 0.0, 2022-05-10 22:35:39.153
127.0, 0.0, 0.0, 0.0, 0.0, -13315.694131337897, 1066.6028936627977, 0.0, 0.0, -0.328, -0.928, 0.152, 192.0, 0.0, 0.0, 0.0, 0.0, 0.0, 0.0, 0.0, 0.0, 0.0, 1.6522401391534073E9, 0.0, 2022-05-10 22:35:39.153
128.0, 0.0, 0.0, 0.0, 0.0, -13317.504622638777, 1062.4454691941105, 0.0, 0.0, -0.328, -0.928, 0.152, 192.0, 0.0, 0.0, 0.0, 0.0, 0.0, 0.0, 0.0, 0.0, 0.0, 1.6522401391534119E9, 0.0, 2022-05-10 22:35:39.153
129.0, 0.0, 0.0, 0.0, 0.0, -13321.01384651826, 1060.657329637686, 0.0, 0.0, -0.328, -0.928, 0.152, 192.0, 0.0, 0.0, 0.0, 0.0, 0.0, 0.0, 0.0, 0.0, 0.0, 1.6522401391534164E9, 0.0, 2022-05-10 22:35:39.153
130.0, 0.0, 0.0, 0.0, 0.0, -13325.059512264672, 1055.628187135242, 0.0, 0.0, -0.328, -0.928, 0.152, 192.0, 0.0, 0.0, 0.0, 0.0, 0.0, 0.0, 0.0, 0.0, 0.0, 1.6522401391534214E9, 0.0, 2022-05-10 22:35:39.153
131.0, 0.0, 0.0, 0.0, 0.0, -13324.523070397743, 1061.2831784824346, 0.0, 0.0, -0.328, -0.928, 0.152, 192.0, 0.0, 0.0, 0.0, 0.0, 0.0, 0.0, 0.0, 0.0, 0.0, 1.6522401391534257E9, 0.0, 2022-05-10 22:35:39.153
132.0, 0.0, 0.0, 0.0, 0.0, -13325.707712853875, 1061.2831784824346, 0.0, 0.0, -0.328, -0.928, 0.152, 192.0, 0.0, 0.0, 0.0, 0.0, 0.0, 0.0, 0.0, 0.0, 0.0, 1.6522401391534302E9, 0.0, 2022-05-10 22:35:39.153
133.0, 0.0, 0.0, 0.0, 0.0, -13313.30249468118, 1066.982873318538, 0.0, 0.0, -0.328, -0.928, 0.152, 192.0, 0.0, 0.0, 0.0, 0.0, 0.0, 0.0, 0.0, 0.0, 0.0, 1.6522401391534417E9, 0.0, 2022-05-10 22:35:39.153
134.0, 0.0, 0.0, 0.0, 0.0, -13358.765942903274, 1024.2239861755356, 0.0, 0.0, -0.328, -0.928, 0.152, 192.0, 0.0, 0.0, 0.0, 0.0, 0.0, 0.0, 0.0, 0.0, 0.0, 1.6522401391534462E9, 0.0, 2022-05-10 22:35:39.153
135.0, 0.0, 0.0, 0.0, 0.0, -13365.873797640063, 1025.2968699093904, 0.0, 0.0, -0.328, -0.928, 0.152, 192.0, 0.0, 0.0, 0.0, 0.0, 0.0, 0.0, 0.0, 0.0, 0.0, 1.6522401391534505E9, 0.0, 2022-05-10 22:35:39.153
136.0, 0.0, 0.0, 0.0, 0.0, -13368.488951741332, 1016.9596692275608, 0.0, 0.0, -0.33, -0.934, 0.152, 192.0, 245.0, 176.0, 226.0, 208.0, 4.0, 192.0, 0.0, 0.0, 0.0, 1.6522401391534543E9, 0.0, 2022-05-10 22:35:39.153
137.0, 0.0, 0.0, 0.0, 0.0, -13391.086565385649, 992.6633230046419, 0.0, 0.0, -0.33, -0.934, 0.152, 192.0, 0.0, 0.0, 0.0, 0.0, 0.0, 0.0, 0.0, 0.0, 0.0, 1.6522401391534588E9, 0.0, 2022-05-10 22:35:39.153
138.0, 0.0, 0.0, 0.0, 0.0, -13373.227521565857, 1014.2327564040132, 0.0, 0.0, -0.33, -0.934, 0.152, 192.0, 0.0, 0.0, 0.0, 0.0, 0.0, 0.0, 0.0, 0.0, 0.0, 1.6522401391534631E9, 0.0, 2022-05-10 22:35:39.153
139.0, 0.0, 0.0, 0.0, 0.0, -13387.398527550522, 1000.1064539082593, 0.0, 0.0, -0.33, -0.934, 0.152, 192.0, 0.0, 0.0, 0.0, 0.0, 0.0, 0.0, 0.0, 0.0, 0.0, 1.6522401391534677E9, 0.0, 2022-05-10 22:35:39.153
140.0, 0.0, 0.0, 0.0, 0.0, -13384.470449026878, 999.4135498301447, 0.0, 0.0, -0.33, -0.934, 0.152, 192.0, 0.0, 0.0, 0.0, 0.0, 0.0, 0.0, 0.0, 0.0, 0.0, 1.6522401391534717E9, 0.0, 2022-05-10 22:35:39.153
141.0, 0.0, 0.0, 0.0, 0.0, -13388.65022524002, 996.0384364173933, 0.0, 0.0, -0.33, -0.934, 0.152, 192.0, 0.0, 0.0, 0.0, 0.0, 0.0, 0.0, 0.0, 0.0, 0.0, 1.6522401391534765E9, 0.0, 2022-05-10 22:35:39.153
142.0, 0.0, 0.0, 0.0, 0.0, -13381.31885305868, 1008.7789307569184, 0.0, 0.0, -0.33, -0.934, 0.152, 192.0, 0.0, 0.0, 0.0, 0.0, 0.0, 0.0, 0.0, 0.0, 0.0, 1.6522401391534803E9, 0.0, 2022-05-10 22:35:39.153
143.0, 0.0, 0.0, 0.0, 0.0, -13388.471411284378, 998.3183143518346, 0.0, 0.0, -0.33, -0.934, 0.152, 192.0, 0.0, 0.0, 0.0, 0.0, 0.0, 0.0, 0.0, 0.0, 0.0, 1.6522401391534848E9, 0.0, 2022-05-10 22:35:39.153
144.0, 0.0, 0.0, 0.0, 0.0, -13384.828076938162, 1002.2075178870581, 0.0, 0.0, -0.33, -0.934, 0.152, 192.0, 0.0, 0.0, 0.0, 0.0, 0.0, 0.0, 0.0, 0.0, 0.0, 1.652240139153489E9, 0.0, 2022-05-10 22:35:39.153
145.0, 0.0, 0.0, 0.0, 0.0, -13362.968070860872, 1023.6875443086082, 0.0, 0.0, -0.33, -0.934, 0.152, 192.0, 0.0, 0.0, 0.0, 0.0, 0.0, 0.0, 0.0, 0.0, 0.0, 1.6522401391534932E9, 0.0, 2022-05-10 22:35:39.153
146.0, 0.0, 0.0, 0.0, 0.0, -13349.69113465442, 1035.7351345700188, 0.0, 0.0, -0.33, -0.932, 0.154, 192.0, 245.0, 176.0, 226.0, 224.0, 4.0, 208.0, 0.0, 0.0, 0.0, 1.6522401391534977E9, 0.0, 2022-05-10 22:35:39.153
147.0, 0.0, 0.0, 0.0, 0.0, -13339.342276971613, 1044.0052800184824, 0.0, 0.0, -0.33, -0.932, 0.154, 192.0, 0.0, 0.0, 0.0, 0.0, 0.0, 0.0, 0.0, 0.0, 0.0, 1.6522401391535015E9, 0.0, 2022-05-10 22:35:39.153
148.0, 0.0, 0.0, 0.0, 0.0, -13323.87486980854, 1056.656367380186, 0.0, 0.0, -0.33, -0.932, 0.154, 192.0, 0.0, 0.0, 0.0, 0.0, 0.0, 0.0, 0.0, 0.0, 0.0, 1.6522401391535065E9, 0.0, 2022-05-10 22:35:39.153
149.0, 0.0, 0.0, 0.0, 0.0, -13350.87577711055, 1032.5835386018205, 0.0, 0.0, -0.33, -0.932, 0.154, 192.0, 0.0, 0.0, 0.0, 0.0, 0.0, 0.0, 0.0, 0.0, 0.0, 1.6522401391535108E9, 0.0, 2022-05-10 22:35:39.153
150.0, 0.0, 0.0, 0.0, 0.0, -13373.987480877338, 1012.3105063808569, 0.0, 0.0, -0.33, -0.932, 0.154, 192.0, 0.0, 0.0, 0.0, 0.0, 0.0, 0.0, 0.0, 0.0, 0.0, 1.6522401391535149E9, 0.0, 2022-05-10 22:35:39.153
151.0, 0.0, 0.0, 0.0, 0.0, -13332.502643168289, 1050.3978789327, 0.0, 0.0, -0.33, -0.932, 0.154, 192.0, 0.0, 0.0, 0.0, 0.0, 0.0, 0.0, 0.0, 0.0, 0.0, 1.652240139153519E9, 0.0, 2022-05-10 22:35:39.153
152.0, 0.0, 0.0, 0.0, 0.0, -13308.5415731122, 1073.174306532658, 0.0, 0.0, -0.33, -0.932, 0.154, 192.0, 0.0, 0.0, 0.0, 0.0, 0.0, 0.0, 0.0, 0.0, 0.0, 1.6522401391535232E9, 0.0, 2022-05-10 22:35:39.153
153.0, 0.0, 0.0, 0.0, 0.0, -13337.241212992814, 1051.180189988636, 0.0, 0.0, -0.33, -0.932, 0.154, 192.0, 0.0, 0.0, 0.0, 0.0, 0.0, 0.0, 0.0, 0.0, 0.0, 1.6522401391535275E9, 0.0, 2022-05-10 22:35:39.153
154.0, 0.0, 0.0, 0.0, 0.0, -13342.337410728624, 1045.3240329413454, 0.0, 0.0, -0.33, -0.932, 0.154, 192.0, 0.0, 0.0, 0.0, 0.0, 0.0, 0.0, 0.0, 0.0, 0.0, 1.6522401391535316E9, 0.0, 2022-05-10 22:35:39.153
155.0, 0.0, 0.0, 0.0, 0.0, -13357.491893469321, 1029.141369955703, 0.0, 0.0, -0.33, -0.932, 0.154, 192.0, 0.0, 0.0, 0.0, 0.0, 0.0, 0.0, 0.0, 0.0, 0.0, 1.6522401391535373E9, 0.0, 2022-05-10 22:35:39.153
156.0, 0.0, 0.0, 0.0, 0.0, -13340.795140361208, 1045.1228672412476, 0.0, 0.0, -0.328, -0.936, 0.158, 192.0, 245.0, 192.0, 226.0, 192.0, 4.0, 240.0, 0.0, 0.0, 0.0, 1.6522401391535413E9, 0.0, 2022-05-10 22:35:39.153
157.0, 0.0, 0.0, 0.0, 0.0, -13329.932192555929, 1051.8730940667504, 0.0, 0.0, -0.328, -0.936, 0.158, 192.0, 0.0, 0.0, 0.0, 0.0, 0.0, 0.0, 0.0, 0.0, 0.0, 1.6522401391535459E9, 0.0, 2022-05-10 22:35:39.153
158.0, 0.0, 0.0, 0.0, 0.0, -13343.611460162576, 1040.6078148612755, 0.0, 0.0, -0.328, -0.936, 0.158, 192.0, 0.0, 0.0, 0.0, 0.0, 0.0, 0.0, 0.0, 0.0, 0.0, 1.65224013915355E9, 0.0, 2022-05-10 22:35:39.153
159.0, 0.0, 0.0, 0.0, 0.0, -13369.271262797269, 1016.8032070163736, 0.0, 0.0, -0.328, -0.936, 0.158, 192.0, 0.0, 0.0, 0.0, 0.0, 0.0, 0.0, 0.0, 0.0, 0.0, 1.652240139153554E9, 0.0, 2022-05-10 22:35:39.153
160.0, 0.0, 0.0, 0.0, 0.0, -13368.488951741332, 1017.5408145833987, 0.0, 0.0, -0.328, -0.936, 0.158, 192.0, 0.0, 0.0, 0.0, 0.0, 0.0, 0.0, 0.0, 0.0, 0.0, 1.652240139153558E9, 0.0, 2022-05-10 22:35:39.153
161.0, 0.0, 0.0, 0.0, 0.0, -13376.490876256334, 1010.5894220577982, 0.0, 0.0, -0.328, -0.936, 0.158, 192.0, 0.0, 0.0, 0.0, 0.0, 0.0, 0.0, 0.0, 0.0, 0.0, 1.6522401391535625E9, 0.0, 2022-05-10 22:35:39.153
162.0, 0.0, 0.0, 0.0, 0.0, -13354.139131801026, 1033.8352362913176, 0.0, 0.0, -0.328, -0.936, 0.158, 192.0, 0.0, 0.0, 0.0, 0.0, 0.0, 0.0, 0.0, 0.0, 0.0, 1.652240139153567E9, 0.0, 2022-05-10 22:35:39.153
163.0, 0.0, 0.0, 0.0, 0.0, -13341.957431072884, 1045.8381230638174, 0.0, 0.0, -0.328, -0.936, 0.158, 192.0, 0.0, 0.0, 0.0, 0.0, 0.0, 0.0, 0.0, 0.0, 0.0, 1.6522401391535711E9, 0.0, 2022-05-10 22:35:39.153
164.0, 0.0, 0.0, 0.0, 0.0, -13355.860216124085, 1034.9081200251724, 0.0, 0.0, -0.328, -0.936, 0.158, 192.0, 0.0, 0.0, 0.0, 0.0, 0.0, 0.0, 0.0, 0.0, 0.0, 1.6522401391535752E9, 0.0, 2022-05-10 22:35:39.153
165.0, 0.0, 0.0, 0.0, 0.0, -13360.129399315048, 1031.3765444012338, 0.0, 0.0, -0.328, -0.93, 0.16, 192.0, 245.0, 192.0, 226.0, 240.0, 5.0, 0.0, 0.0, 0.0, 0.0, 1.6522401391535804E9, 0.0, 2022-05-10 22:35:39.153
166.0, 0.0, 0.0, 0.0, 0.0, -13357.447189980412, 1028.8731490222394, 0.0, 0.0, -0.328, -0.93, 0.16, 192.0, 0.0, 0.0, 0.0, 0.0, 0.0, 0.0, 0.0, 0.0, 0.0, 1.6522401391535847E9, 0.0, 2022-05-10 22:35:39.153
167.0, 0.0, 0.0, 0.0, 0.0, -13348.327678242646, 1036.629204348231, 0.0, 0.0, -0.328, -0.93, 0.16, 192.0, 0.0, 0.0, 0.0, 0.0, 0.0, 0.0, 0.0, 0.0, 0.0, 1.6522401391535892E9, 0.0, 2022-05-10 22:35:39.153
168.0, 0.0, 0.0, 0.0, 0.0, -13373.74161168833, 1010.9023464801725, 0.0, 0.0, -0.328, -0.93, 0.16, 192.0, 0.0, 0.0, 0.0, 0.0, 0.0, 0.0, 0.0, 0.0, 0.0, 1.652240139153594E9, 0.0, 2022-05-10 22:35:39.153
169.0, 0.0, 0.0, 0.0, 0.0, -13375.93208264495, 1005.336762110801, 0.0, 0.0, -0.328, -0.93, 0.16, 192.0, 0.0, 0.0, 0.0, 0.0, 0.0, 0.0, 0.0, 0.0, 0.0, 1.6522401391535983E9, 0.0, 2022-05-10 22:35:39.153
170.0, 0.0, 0.0, 0.0, 0.0, -13399.356710834112, 987.2989043353683, 0.0, 0.0, -0.328, -0.93, 0.16, 192.0, 0.0, 0.0, 0.0, 0.0, 0.0, 0.0, 0.0, 0.0, 0.0, 1.6522401391536033E9, 0.0, 2022-05-10 22:35:39.153
171.0, 0.0, 0.0, 0.0, 0.0, -13407.246876626836, 970.7139099495304, 0.0, 0.0, -0.328, -0.93, 0.16, 192.0, 0.0, 0.0, 0.0, 0.0, 0.0, 0.0, 0.0, 0.0, 0.0, 1.652240139153608E9, 0.0, 2022-05-10 22:35:39.153
172.0, 0.0, 0.0, 0.0, 0.0, -13403.60354228062, 977.1959158415694, 0.0, 0.0, -0.328, -0.93, 0.16, 192.0, 0.0, 0.0, 0.0, 0.0, 0.0, 0.0, 0.0, 0.0, 0.0, 1.652240139153612E9, 0.0, 2022-05-10 22:35:39.153
173.0, 0.0, 0.0, 0.0, 0.0, -13389.901922929517, 994.5185177944325, 0.0, 0.0, -0.328, -0.93, 0.16, 192.0, 0.0, 0.0, 0.0, 0.0, 0.0, 0.0, 0.0, 0.0, 0.0, 1.6522401391536164E9, 0.0, 2022-05-10 22:35:39.153
174.0, 0.0, 0.0, 0.0, 0.0, -13399.021434667282, 984.3261223228125, 0.0, 0.0, -0.328, -0.93, 0.16, 192.0, 0.0, 0.0, 0.0, 0.0, 0.0, 0.0, 0.0, 0.0, 0.0, 1.6522401391536207E9, 0.0, 2022-05-10 22:35:39.153
175.0, 0.0, 0.0, 0.0, 0.0, -13376.535579745243, 1009.4271313461222, 0.0, 0.0, -0.324, -0.932, 0.156, 192.0, 245.0, 224.0, 226.0, 224.0, 4.0, 224.0, 0.0, 0.0, 0.0, 1.6522401391536252E9, 0.0, 2022-05-10 22:35:39.153
176.0, 0.0, 0.0, 0.0, 0.0, -13372.467562254378, 1011.371733113734, 0.0, 0.0, -0.324, -0.932, 0.156, 192.0, 0.0, 0.0, 0.0, 0.0, 0.0, 0.0, 0.0, 0.0, 0.0, 1.6522401391536305E9, 0.0, 2022-05-10 22:35:39.153
177.0, 0.0, 0.0, 0.0, 0.0, -13361.582262704644, 1023.1287506972255, 0.0, 0.0, -0.324, -0.932, 0.156, 192.0, 0.0, 0.0, 0.0, 0.0, 0.0, 0.0, 0.0, 0.0, 0.0, 1.6522401391536348E9, 0.0, 2022-05-10 22:35:39.153
178.0, 0.0, 0.0, 0.0, 0.0, -13363.526864472255, 1021.7429425409964, 0.0, 0.0, -0.324, -0.932, 0.156, 192.0, 0.0, 0.0, 0.0, 0.0, 0.0, 0.0, 0.0, 0.0, 0.0, 1.6522401391536393E9, 0.0, 2022-05-10 22:35:39.153
179.0, 0.0, 0.0, 0.0, 0.0, -13362.521035971766, 1024.8051315313735, 0.0, 0.0, -0.324, -0.932, 0.156, 192.0, 0.0, 0.0, 0.0, 0.0, 0.0, 0.0, 0.0, 0.0, 0.0, 1.6522401391536436E9, 0.0, 2022-05-10 22:35:39.153
180.0, 0.0, 0.0, 0.0, 0.0, -13370.612367464588, 1018.2560704059686, 0.0, 0.0, -0.324, -0.932, 0.156, 192.0, 0.0, 0.0, 0.0, 0.0, 0.0, 0.0, 0.0, 0.0, 0.0, 1.6522401391536477E9, 0.0, 2022-05-10 22:35:39.153
181.0, 0.0, 0.0, 0.0, 0.0, -13370.679422697953, 1016.467930849544, 0.0, 0.0, -0.324, -0.932, 0.156, 192.0, 0.0, 0.0, 0.0, 0.0, 0.0, 0.0, 0.0, 0.0, 0.0, 1.652240139153652E9, 0.0, 2022-05-10 22:35:39.153
182.0, 0.0, 0.0, 0.0, 0.0, -13366.879626140551, 1021.8099977743624, 0.0, 0.0, -0.324, -0.932, 0.156, 192.0, 0.0, 0.0, 0.0, 0.0, 0.0, 0.0, 0.0, 0.0, 0.0, 1.6522401391536562E9, 0.0, 2022-05-10 22:35:39.153
183.0, 0.0, 0.0, 0.0, 0.0, -13349.311154998679, 1039.8255038053398, 0.0, 0.0, -0.324, -0.932, 0.156, 192.0, 0.0, 0.0, 0.0, 0.0, 0.0, 0.0, 0.0, 0.0, 0.0, 1.6522401391536603E9, 0.0, 2022-05-10 22:35:39.153
184.0, 0.0, 0.0, 0.0, 0.0, -13357.26837602477, 1028.560224599865, 0.0, 0.0, -0.324, -0.932, 0.156, 192.0, 0.0, 0.0, 0.0, 0.0, 0.0, 0.0, 0.0, 0.0, 0.0, 1.652240139153665E9, 0.0, 2022-05-10 22:35:39.153
185.0, 0.0, 0.0, 0.0, 0.0, -13345.26548925227, 1040.6525183501863, 0.0, 0.0, -0.322, -0.926, 0.15, 192.0, 245.0, 240.0, 227.0, 16.0, 4.0, 176.0, 0.0, 0.0, 0.0, 1.652240139153669E9, 0.0, 2022-05-10 22:35:39.153
186.0, 0.0, 0.0, 0.0, 0.0, -13316.20822146037, 1064.1889052616245, 0.0, 0.0, -0.322, -0.926, 0.15, 192.0, 0.0, 0.0, 0.0, 0.0, 0.0, 0.0, 0.0, 0.0, 0.0, 1.6522401391536734E9, 0.0, 2022-05-10 22:35:39.153
187.0, 0.0, 0.0, 0.0, 0.0, -13337.375323459546, 1046.2628062084682, 0.0, 0.0, -0.322, -0.926, 0.15, 192.0, 0.0, 0.0, 0.0, 0.0, 0.0, 0.0, 0.0, 0.0, 0.0, 1.6522401391536777E9, 0.0, 2022-05-10 22:35:39.153
188.0, 0.0, 0.0, 0.0, 0.0, -13336.59301240361, 1049.6155678767643, 0.0, 0.0, -0.322, -0.926, 0.15, 192.0, 0.0, 0.0, 0.0, 0.0, 0.0, 0.0, 0.0, 0.0, 0.0, 1.652240139153682E9, 0.0, 2022-05-10 22:35:39.153
189.0, 0.0, 0.0, 0.0, 0.0, -13342.627983406543, 1046.9333585421275, 0.0, 0.0, -0.322, -0.926, 0.15, 192.0, 0.0, 0.0, 0.0, 0.0, 0.0, 0.0, 0.0, 0.0, 0.0, 1.6522401391536868E9, 0.0, 2022-05-10 22:35:39.153
190.0, 0.0, 0.0, 0.0, 0.0, -13344.97491657435, 1045.145218985703, 0.0, 0.0, -0.322, -0.926, 0.15, 192.0, 0.0, 0.0, 0.0, 0.0, 0.0, 0.0, 0.0, 0.0, 0.0, 1.6522401391536908E9, 0.0, 2022-05-10 22:35:39.153
191.0, 0.0, 0.0, 0.0, 0.0, -13347.858291609085, 1041.1889602171136, 0.0, 0.0, -0.322, -0.926, 0.15, 192.0, 0.0, 0.0, 0.0, 0.0, 0.0, 0.0, 0.0, 0.0, 0.0, 1.652240139153695E9, 0.0, 2022-05-10 22:35:39.153
192.0, 0.0, 0.0, 0.0, 0.0, -13339.029352549238, 1048.8332568208286, 0.0, 0.0, -0.322, -0.926, 0.15, 192.0, 0.0, 0.0, 0.0, 0.0, 0.0, 0.0, 0.0, 0.0, 0.0, 1.6522401391536996E9, 0.0, 2022-05-10 22:35:39.153
193.0, 0.0, 0.0, 0.0, 0.0, -13309.279180679225, 1073.174306532658, 0.0, 0.0, -0.322, -0.926, 0.15, 192.0, 0.0, 0.0, 0.0, 0.0, 0.0, 0.0, 0.0, 0.0, 0.0, 1.6522401391537042E9, 0.0, 2022-05-10 22:35:39.153
194.0, 0.0, 0.0, 0.0, 0.0, -13297.25394216227, 1086.7194636725742, 0.0, 0.0, -0.322, -0.926, 0.15, 192.0, 0.0, 0.0, 0.0, 0.0, 0.0, 0.0, 0.0, 0.0, 0.0, 1.6522401391537085E9, 0.0, 2022-05-10 22:35:39.153
195.0, 0.0, 0.0, 0.0, 0.0, -13290.213142658848, 1094.5202224874763, 0.0, 0.0, -0.324, -0.932, 0.154, 192.0, 245.0, 224.0, 226.0, 224.0, 4.0, 208.0, 0.0, 0.0, 0.0, 1.6522401391537125E9, 0.0, 2022-05-10 22:35:39.153
196.0, 0.0, 0.0, 0.0, 0.0, -13282.211218143848, 1099.527013245465, 0.0, 0.0, -0.324, -0.932, 0.154, 192.0, 0.0, 0.0, 0.0, 0.0, 0.0, 0.0, 0.0, 0.0, 0.0, 1.6522401391537173E9, 0.0, 2022-05-10 22:35:39.153
197.0, 0.0, 0.0, 0.0, 0.0, -13264.508636535245, 1121.141150133747, 0.0, 0.0, -0.324, -0.932, 0.154, 192.0, 0.0, 0.0, 0.0, 0.0, 0.0, 0.0, 0.0, 0.0, 0.0, 1.6522401391537228E9, 0.0, 2022-05-10 22:35:39.153
198.0, 0.0, 0.0, 0.0, 0.0, -13295.219933416836, 1091.9050683862054, 0.0, 0.0, -0.324, -0.932, 0.154, 192.0, 0.0, 0.0, 0.0, 0.0, 0.0, 0.0, 0.0, 0.0, 0.0, 1.652240139153727E9, 0.0, 2022-05-10 22:35:39.153
199.0, 0.0, 0.0, 0.0, 0.0, -13282.613549544043, 1107.7748069494733, 0.0, 0.0, -0.324, -0.932, 0.154, 192.0, 0.0, 0.0, 0.0, 0.0, 0.0, 0.0, 0.0, 0.0, 0.0, 1.6522401391537313E9, 0.0, 2022-05-10 22:35:39.153
200.0, 0.0, 0.0, 0.0, 0.0, -13287.128601924016, 1105.6960947151297, 0.0, 0.0, -0.324, -0.932, 0.154, 192.0, 0.0, 0.0, 0.0, 0.0, 0.0, 0.0, 0.0, 0.0, 0.0, 1.6522401391537356E9, 0.0, 2022-05-10 22:35:39.153
201.0, 0.0, 0.0, 0.0, 0.0, -13297.879791007017, 1095.5036992435098, 0.0, 0.0, -0.324, -0.932, 0.154, 192.0, 0.0, 0.0, 0.0, 0.0, 0.0, 0.0, 0.0, 0.0, 0.0, 1.65224013915374E9, 0.0, 2022-05-10 22:35:39.153
202.0, 0.0, 0.0, 0.0, 0.0, -13335.184852502925, 1059.5397424149207, 0.0, 0.0, -0.324, -0.932, 0.154, 192.0, 0.0, 0.0, 0.0, 0.0, 0.0, 0.0, 0.0, 0.0, 0.0, 1.6522401391537445E9, 0.0, 2022-05-10 22:35:39.153
203.0, 0.0, 0.0, 0.0, 0.0, -13341.152768272492, 1054.756469101485, 0.0, 0.0, -0.324, -0.932, 0.154, 192.0, 0.0, 0.0, 0.0, 0.0, 0.0, 0.0, 0.0, 0.0, 0.0, 1.6522401391537485E9, 0.0, 2022-05-10 22:35:39.153
204.0, 0.0, 0.0, 0.0, 0.0, -13298.527991596222, 1096.2189550660796, 0.0, 0.0, -0.324, -0.932, 0.154, 192.0, 0.0, 0.0, 0.0, 0.0, 0.0, 0.0, 0.0, 0.0, 0.0, 1.6522401391537528E9, 0.0, 2022-05-10 22:35:39.153
205.0, 0.0, 0.0, 0.0, 0.0, -13287.441526346389, 1102.4103882801996, 0.0, 0.0, -0.324, -0.928, 0.148, 192.0, 245.0, 224.0, 227.0, 0.0, 4.0, 160.0, 0.0, 0.0, 0.0, 1.6522401391537569E9, 0.0, 2022-05-10 22:35:39.153
206.0, 0.0, 0.0, 0.0, 0.0, -13328.367570444057, 1065.0382715509263, 0.0, 0.0, -0.324, -0.928, 0.148, 192.0, 0.0, 0.0, 0.0, 0.0, 0.0, 0.0, 0.0, 0.0, 0.0, 1.6522401391537611E9, 0.0, 2022-05-10 22:35:39.153
207.0, 0.0, 0.0, 0.0, 0.0, -13329.976896044838, 1062.8701523387615, 0.0, 0.0, -0.324, -0.928, 0.148, 192.0, 0.0, 0.0, 0.0, 0.0, 0.0, 0.0, 0.0, 0.0, 0.0, 1.6522401391537654E9, 0.0, 2022-05-10 22:35:39.153
208.0, 0.0, 0.0, 0.0, 0.0, -13326.490023909811, 1065.2617889954793, 0.0, 0.0, -0.324, -0.928, 0.148, 192.0, 0.0, 0.0, 0.0, 0.0, 0.0, 0.0, 0.0, 0.0, 0.0, 1.65224013915377E9, 0.0, 2022-05-10 22:35:39.153
209.0, 0.0, 0.0, 0.0, 0.0, -13338.112931026571, 1055.6058353907868, 0.0, 0.0, -0.324, -0.928, 0.148, 192.0, 0.0, 0.0, 0.0, 0.0, 0.0, 0.0, 0.0, 0.0, 0.0, 1.6522401391537745E9, 0.0, 2022-05-10 22:35:39.153
210.0, 0.0, 0.0, 0.0, 0.0, -13320.142128484504, 1072.302588498901, 0.0, 0.0, -0.324, -0.928, 0.148, 192.0, 0.0, 0.0, 0.0, 0.0, 0.0, 0.0, 0.0, 0.0, 0.0, 1.6522401391537783E9, 0.0, 2022-05-10 22:35:39.153
211.0, 0.0, 0.0, 0.0, 0.0, -13306.82048878914, 1088.306437528901, 0.0, 0.0, -0.324, -0.928, 0.148, 192.0, 0.0, 0.0, 0.0, 0.0, 0.0, 0.0, 0.0, 0.0, 0.0, 1.652240139153783E9, 0.0, 2022-05-10 22:35:39.153
212.0, 0.0, 0.0, 0.0, 0.0, -13312.050796991683, 1079.6116089357865, 0.0, 0.0, -0.324, -0.928, 0.148, 192.0, 0.0, 0.0, 0.0, 0.0, 0.0, 0.0, 0.0, 0.0, 0.0, 1.6522401391537871E9, 0.0, 2022-05-10 22:35:39.153
213.0, 0.0, 0.0, 0.0, 0.0, -13310.955561513372, 1078.6057804352977, 0.0, 0.0, -0.324, -0.928, 0.148, 192.0, 0.0, 0.0, 0.0, 0.0, 0.0, 0.0, 0.0, 0.0, 0.0, 1.652240139153792E9, 0.0, 2022-05-10 22:35:39.153
214.0, 0.0, 0.0, 0.0, 0.0, -13321.997323274294, 1071.2967599984122, 0.0, 0.0, -0.324, -0.928, 0.148, 192.0, 0.0, 0.0, 0.0, 0.0, 0.0, 0.0, 0.0, 0.0, 0.0, 1.652240139153796E9, 0.0, 2022-05-10 22:35:39.153
215.0, 0.0, 0.0, 0.0, 0.0, -13327.272334965746, 1062.981911061038, 0.0, 0.0, -0.322, -0.924, 0.15, 192.0, 245.0, 240.0, 227.0, 32.0, 4.0, 176.0, 0.0, 0.0, 0.0, 1.6522401391538007E9, 0.0, 2022-05-10 22:35:39.153
216.0, 0.0, 0.0, 0.0, 0.0, -13318.756320328275, 1077.108213556792, 0.0, 0.0, -0.322, -0.924, 0.15, 192.0, 0.0, 0.0, 0.0, 0.0, 0.0, 0.0, 0.0, 0.0, 0.0, 1.6522401391538053E9, 0.0, 2022-05-10 22:35:39.153
217.0, 0.0, 0.0, 0.0, 0.0, -13323.24902096379, 1073.174306532658, 0.0, 0.0, -0.322, -0.924, 0.15, 192.0, 0.0, 0.0, 0.0, 0.0, 0.0, 0.0, 0.0, 0.0, 0.0, 1.6522401391538093E9, 0.0, 2022-05-10 22:35:39.153
218.0, 0.0, 0.0, 0.0, 0.0, -13357.111913813582, 1039.8478555497952, 0.0, 0.0, -0.322, -0.924, 0.15, 192.0, 0.0, 0.0, 0.0, 0.0, 0.0, 0.0, 0.0, 0.0, 0.0, 1.6522401391538131E9, 0.0, 2022-05-10 22:35:39.153
219.0, 0.0, 0.0, 0.0, 0.0, -13344.416122962968, 1050.2861202104236, 0.0, 0.0, -0.322, -0.924, 0.15, 192.0, 0.0, 0.0, 0.0, 0.0, 0.0, 0.0, 0.0, 0.0, 0.0, 1.6522401391538186E9, 0.0, 2022-05-10 22:35:39.153
220.0, 0.0, 0.0, 0.0, 0.0, -13341.622154906054, 1048.8109050763733, 0.0, 0.0, -0.322, -0.924, 0.15, 192.0, 0.0, 0.0, 0.0, 0.0, 0.0, 0.0, 0.0, 0.0, 0.0, 1.652240139153823E9, 0.0, 2022-05-10 22:35:39.153
221.0, 0.0, 0.0, 0.0, 0.0, -13333.061436779672, 1064.6135884062753, 0.0, 0.0, -0.322, -0.924, 0.15, 192.0, 0.0, 0.0, 0.0, 0.0, 0.0, 0.0, 0.0, 0.0, 0.0, 1.6522401391538272E9, 0.0, 2022-05-10 22:35:39.153
222.0, 0.0, 0.0, 0.0, 0.0, -13318.711616839364, 1086.361835761289, 0.0, 0.0, -0.322, -0.924, 0.15, 192.0, 0.0, 0.0, 0.0, 0.0, 0.0, 0.0, 0.0, 0.0, 0.0, 1.6522401391538312E9, 0.0, 2022-05-10 22:35:39.153
223.0, 0.0, 0.0, 0.0, 0.0, -13350.026410821249, 1056.1199255132587, 0.0, 0.0, -0.322, -0.924, 0.15, 192.0, 0.0, 0.0, 0.0, 0.0, 0.0, 0.0, 0.0, 0.0, 0.0, 1.6522401391538365E9, 0.0, 2022-05-10 22:35:39.153
224.0, 0.0, 0.0, 0.0, 0.0, -13394.729899731863, 1007.0131429449491, 0.0, 0.0, -0.322, -0.924, 0.15, 192.0, 0.0, 0.0, 0.0, 0.0, 0.0, 0.0, 0.0, 0.0, 0.0, 1.6522401391538413E9, 0.0, 2022-05-10 22:35:39.153
225.0, 0.0, 0.0, 0.0, 0.0, -13404.117632403093, 996.4184160731336, 0.0, 0.0, -0.33, -0.928, 0.158, 192.0, 245.0, 176.0, 227.0, 0.0, 4.0, 240.0, 0.0, 0.0, 0.0, 1.6522401391538453E9, 0.0, 2022-05-10 22:35:39.153
226.0, 0.0, 0.0, 0.0, 0.0, -13394.528734031766, 1006.566108055843, 0.0, 0.0, -0.33, -0.928, 0.158, 192.0, 0.0, 0.0, 0.0, 0.0, 0.0, 0.0, 0.0, 0.0, 0.0, 1.6522401391538496E9, 0.0, 2022-05-10 22:35:39.153
227.0, 0.0, 0.0, 0.0, 0.0, -13399.244952111836, 1001.7828347424072, 0.0, 0.0, -0.33, -0.928, 0.158, 192.0, 0.0, 0.0, 0.0, 0.0, 0.0, 0.0, 0.0, 0.0, 0.0, 1.652240139153854E9, 0.0, 2022-05-10 22:35:39.153
228.0, 0.0, 0.0, 0.0, 0.0, -13405.570495792688, 999.5029568079659, 0.0, 0.0, -0.33, -0.928, 0.158, 192.0, 0.0, 0.0, 0.0, 0.0, 0.0, 0.0, 0.0, 0.0, 0.0, 1.652240139153858E9, 0.0, 2022-05-10 22:35:39.153
229.0, 0.0, 0.0, 0.0, 0.0, -13412.834812740663, 995.9043259506615, 0.0, 0.0, -0.33, -0.928, 0.158, 192.0, 0.0, 0.0, 0.0, 0.0, 0.0, 0.0, 0.0, 0.0, 0.0, 1.6522401391538625E9, 0.0, 2022-05-10 22:35:39.153
230.0, 0.0, 0.0, 0.0, 0.0, -13391.22067585238, 1013.9645354705495, 0.0, 0.0, -0.33, -0.928, 0.158, 192.0, 0.0, 0.0, 0.0, 0.0, 0.0, 0.0, 0.0, 0.0, 0.0, 1.6522401391538663E9, 0.0, 2022-05-10 22:35:39.153
231.0, 0.0, 0.0, 0.0, 0.0, -13373.383983777045, 1029.9013292671834, 0.0, 0.0, -0.33, -0.928, 0.158, 192.0, 0.0, 0.0, 0.0, 0.0, 0.0, 0.0, 0.0, 0.0, 0.0, 1.6522401391538706E9, 0.0, 2022-05-10 22:35:39.153
232.0, 0.0, 0.0, 0.0, 0.0, -13348.506492198288, 1052.0072045334823, 0.0, 0.0, -0.33, -0.928, 0.158, 192.0, 0.0, 0.0, 0.0, 0.0, 0.0, 0.0, 0.0, 0.0, 0.0, 1.6522401391538749E9, 0.0, 2022-05-10 22:35:39.153
233.0, 0.0, 0.0, 0.0, 0.0, -13324.411311675467, 1070.8944285982168, 0.0, 0.0, -0.33, -0.928, 0.158, 192.0, 0.0, 0.0, 0.0, 0.0, 0.0, 0.0, 0.0, 0.0, 0.0, 1.6522401391538792E9, 0.0, 2022-05-10 22:35:39.153
234.0, 0.0, 0.0, 0.0, 0.0, -13330.155710000481, 1062.8478005943061, 0.0, 0.0, -0.33, -0.928, 0.158, 192.0, 0.0, 0.0, 0.0, 0.0, 0.0, 0.0, 0.0, 0.0, 0.0, 1.6522401391538837E9, 0.0, 2022-05-10 22:35:39.153
235.0, 0.0, 0.0, 0.0, 0.0, -13342.583279917631, 1047.559207386876, 0.0, 0.0, -0.332, -0.918, 0.156, 192.0, 245.0, 160.0, 227.0, 80.0, 4.0, 224.0, 0.0, 0.0, 0.0, 1.6522401391538877E9, 0.0, 2022-05-10 22:35:39.153
236.0, 0.0, 0.0, 0.0, 0.0, -13353.98266958984, 1037.5456258708984, 0.0, 0.0, -0.332, -0.918, 0.156, 192.0, 0.0, 0.0, 0.0, 0.0, 0.0, 0.0, 0.0, 0.0, 0.0, 1.652240139153892E9, 0.0, 2022-05-10 22:35:39.153
237.0, 0.0, 0.0, 0.0, 0.0, -13356.419009735468, 1038.2608816934683, 0.0, 0.0, -0.332, -0.918, 0.156, 192.0, 0.0, 0.0, 0.0, 0.0, 0.0, 0.0, 0.0, 0.0, 0.0, 1.652240139153896E9, 0.0, 2022-05-10 22:35:39.153
238.0, 0.0, 0.0, 0.0, 0.0, -13382.12351585907, 1015.6856197936082, 0.0, 0.0, -0.332, -0.918, 0.156, 192.0, 0.0, 0.0, 0.0, 0.0, 0.0, 0.0, 0.0, 0.0, 0.0, 1.6522401391539004E9, 0.0, 2022-05-10 22:35:39.153
239.0, 0.0, 0.0, 0.0, 0.0, -13368.64541395252, 1030.3483641562896, 0.0, 0.0, -0.332, -0.918, 0.156, 192.0, 0.0, 0.0, 0.0, 0.0, 0.0, 0.0, 0.0, 0.0, 0.0, 1.652240139153905E9, 0.0, 2022-05-10 22:35:39.153
240.0, 0.0, 0.0, 0.0, 0.0, -13367.840751152129, 1033.7681810579516, 0.0, 0.0, -0.332, -0.918, 0.156, 192.0, 0.0, 0.0, 0.0, 0.0, 0.0, 0.0, 0.0, 0.0, 0.0, 1.652240139153916E9, 0.0, 2022-05-10 22:35:39.153
241.0, 0.0, 0.0, 0.0, 0.0, -13351.635736422031, 1049.727326599041, 0.0, 0.0, -0.332, -0.918, 0.156, 192.0, 0.0, 0.0, 0.0, 0.0, 0.0, 0.0, 0.0, 0.0, 0.0, 1.6522401394993217E9, 0.0, 2022-05-10 22:35:39.499
242.0, 0.0, 0.0, 0.0, 0.0, -13367.505474985299, 1033.3882014022115, 0.0, 0.0, -0.332, -0.918, 0.156, 192.0, 0.0, 0.0, 0.0, 0.0, 0.0, 0.0, 0.0, 0.0, 0.0, 1.6522401394993677E9, 0.0, 2022-05-10 22:35:39.499
243.0, 0.0, 0.0, 0.0, 0.0, -13376.26735881178, 1025.945070498594, 0.0, 0.0, -0.332, -0.918, 0.156, 192.0, 0.0, 0.0, 0.0, 0.0, 0.0, 0.0, 0.0, 0.0, 0.0, 1.6522401394993725E9, 0.0, 2022-05-10 22:35:39.499
244.0, 0.0, 0.0, 0.0, 0.0, -13383.397565293022, 1017.9207942391389, 0.0, 0.0, -0.328, -0.926, 0.154, 192.0, 245.0, 192.0, 227.0, 16.0, 4.0, 208.0, 0.0, 0.0, 0.0, 1.6522401394993765E9, 0.0, 2022-05-10 22:35:39.499
245.0, 0.0, 0.0, 0.0, 0.0, -13420.70262678893, 979.1181658647258, 0.0, 0.0, -0.328, -0.926, 0.154, 192.0, 0.0, 0.0, 0.0, 0.0, 0.0, 0.0, 0.0, 0.0, 0.0, 1.6522401394993837E9, 0.0, 2022-05-10 22:35:39.499
246.0, 0.0, 0.0, 0.0, 0.0, -13455.727810350396, 939.8685026012067, 0.0, 0.0, -0.328, -0.926, 0.154, 192.0, 0.0, 0.0, 0.0, 0.0, 0.0, 0.0, 0.0, 0.0, 0.0, 1.6522401394993885E9, 0.0, 2022-05-10 22:35:39.499
247.0, 0.0, 0.0, 0.0, 0.0, -13414.17591740798, 980.1686978541253, 0.0, 0.0, -0.328, -0.926, 0.154, 192.0, 0.0, 0.0, 0.0, 0.0, 0.0, 0.0, 0.0, 0.0, 0.0, 1.6522401394993925E9, 0.0, 2022-05-10 22:35:39.499
248.0, 0.0, 0.0, 0.0, 0.0, -13404.944646947939, 988.5282502804101, 0.0, 0.0, -0.328, -0.926, 0.154, 192.0, 0.0, 0.0, 0.0, 0.0, 0.0, 0.0, 0.0, 0.0, 0.0, 1.6522401394993975E9, 0.0, 2022-05-10 22:35:39.499
249.0, 0.0, 0.0, 0.0, 0.0, -13377.295539056724, 1011.9752302140273, 0.0, 0.0, -0.328, -0.926, 0.154, 192.0, 0.0, 0.0, 0.0, 0.0, 0.0, 0.0, 0.0, 0.0, 0.0, 1.6522401394994018E9, 0.0, 2022-05-10 22:35:39.499
250.0, 0.0, 0.0, 0.0, 0.0, -13349.624079421053, 1048.7662015874628, 0.0, 0.0, -0.328, -0.926, 0.154, 192.0, 0.0, 0.0, 0.0, 0.0, 0.0, 0.0, 0.0, 0.0, 0.0, 1.6522401394994063E9, 0.0, 2022-05-10 22:35:39.499
251.0, 0.0, 0.0, 0.0, 0.0, -13341.64450665051, 1056.6340156357307, 0.0, 0.0, -0.328, -0.926, 0.154, 192.0, 0.0, 0.0, 0.0, 0.0, 0.0, 0.0, 0.0, 0.0, 0.0, 1.6522401394994147E9, 0.0, 2022-05-10 22:35:39.499
252.0, 0.0, 0.0, 0.0, 0.0, -13342.829149106641, 1054.465896423566, 0.0, 0.0, -0.328, -0.926, 0.154, 192.0, 0.0, 0.0, 0.0, 0.0, 0.0, 0.0, 0.0, 0.0, 0.0, 1.652240139499424E9, 0.0, 2022-05-10 22:35:39.499
253.0, 0.0, 0.0, 0.0, 0.0, -13379.463658268889, 1018.9042709951724, 0.0, 0.0, -0.328, -0.926, 0.154, 192.0, 0.0, 0.0, 0.0, 0.0, 0.0, 0.0, 0.0, 0.0, 0.0, 1.652240139499431E9, 0.0, 2022-05-10 22:35:39.499
254.0, 0.0, 0.0, 0.0, 0.0, -13395.93689393245, 1000.3970265861782, 0.0, 0.0, -0.33, -0.928, 0.156, 192.0, 245.0, 176.0, 227.0, 0.0, 4.0, 224.0, 0.0, 0.0, 0.0, 1.6522401394994383E9, 0.0, 2022-05-10 22:35:39.499
255.0, 0.0, 0.0, 0.0, 0.0, -13415.449966841934, 983.6779217336085, 0.0, 0.0, -0.33, -0.928, 0.156, 192.0, 0.0, 0.0, 0.0, 0.0, 0.0, 0.0, 0.0, 0.0, 0.0, 1.652240139499445E9, 0.0, 2022-05-10 22:35:39.499
0.0, 0.0, 0.0, 0.0, 0.0, -13413.862992985607, 981.7556717104521, 0.0, 0.0, -0.33, -0.928, 0.156, 192.0, 0.0, 0.0, 0.0, 0.0, 0.0, 0.0, 0.0, 0.0, 0.0, 1.65224013949945E9, 0.0, 2022-05-10 22:35:39.499
1.0, 0.0, 0.0, 0.0, 0.0, -13378.234312323846, 1021.4523698630775, 0.0, 0.0, -0.33, -0.928, 0.156, 192.0, 0.0, 0.0, 0.0, 0.0, 0.0, 0.0, 0.0, 0.0, 0.0, 1.6522401394994547E9, 0.0, 2022-05-10 22:35:39.499
2.0, 0.0, 0.0, 0.0, 0.0, -13394.953417176417, 1006.566108055843, 0.0, 0.0, -0.33, -0.928, 0.156, 192.0, 0.0, 0.0, 0.0, 0.0, 0.0, 0.0, 0.0, 0.0, 0.0, 1.6522401394994593E9, 0.0, 2022-05-10 22:35:39.499
3.0, 0.0, 0.0, 0.0, 0.0, -13369.919463386472, 1030.0577914783707, 0.0, 0.0, -0.33, -0.928, 0.156, 192.0, 0.0, 0.0, 0.0, 0.0, 0.0, 0.0, 0.0, 0.0, 0.0, 1.652240139499464E9, 0.0, 2022-05-10 22:35:39.499
4.0, 0.0, 0.0, 0.0, 0.0, -13345.511358441277, 1056.3881464467224, 0.0, 0.0, -0.33, -0.928, 0.156, 192.0, 0.0, 0.0, 0.0, 0.0, 0.0, 0.0, 0.0, 0.0, 0.0, 1.6522401394994683E9, 0.0, 2022-05-10 22:35:39.499
5.0, 0.0, 0.0, 0.0, 0.0, -13348.394733476012, 1047.8050765758844, 0.0, 0.0, -0.33, -0.928, 0.156, 192.0, 0.0, 0.0, 0.0, 0.0, 0.0, 0.0, 0.0, 0.0, 0.0, 1.652240139499473E9, 0.0, 2022-05-10 22:35:39.499
6.0, 0.0, 0.0, 0.0, 0.0, -13354.139131801026, 1039.3784689162337, 0.0, 0.0, -0.33, -0.928, 0.156, 192.0, 0.0, 0.0, 0.0, 0.0, 0.0, 0.0, 0.0, 0.0, 0.0, 1.6522401394994771E9, 0.0, 2022-05-10 22:35:39.499
7.0, 0.0, 0.0, 0.0, 0.0, -13366.790219162729, 1028.6049280887758, 0.0, 0.0, -0.33, -0.928, 0.156, 192.0, 0.0, 0.0, 0.0, 0.0, 0.0, 0.0, 0.0, 0.0, 0.0, 1.6522401394994817E9, 0.0, 2022-05-10 22:35:39.499
8.0, 0.0, 0.0, 0.0, 0.0, -13361.157579559993, 1034.3940299027001, 0.0, 0.0, -0.324, -0.932, 0.15, 192.0, 245.0, 224.0, 226.0, 224.0, 4.0, 176.0, 0.0, 0.0, 0.0, 1.6522401394994857E9, 0.0, 2022-05-10 22:35:39.499
9.0, 0.0, 0.0, 0.0, 0.0, -13351.948660844406, 1045.011108518971, 0.0, 0.0, -0.324, -0.932, 0.15, 192.0, 0.0, 0.0, 0.0, 0.0, 0.0, 0.0, 0.0, 0.0, 0.0, 1.65224013949949E9, 0.0, 2022-05-10 22:35:39.499
10.0, 0.0, 0.0, 0.0, 0.0, -13332.524994912745, 1068.2792744969458, 0.0, 0.0, -0.324, -0.932, 0.15, 192.0, 0.0, 0.0, 0.0, 0.0, 0.0, 0.0, 0.0, 0.0, 0.0, 1.6522401394994943E9, 0.0, 2022-05-10 22:35:39.499
11.0, 0.0, 0.0, 0.0, 0.0, -13338.694076382408, 1060.277349981946, 0.0, 0.0, -0.324, -0.932, 0.15, 192.0, 0.0, 0.0, 0.0, 0.0, 0.0, 0.0, 0.0, 0.0, 0.0, 1.6522401394994984E9, 0.0, 2022-05-10 22:35:39.499
12.0, 0.0, 0.0, 0.0, 0.0, -13361.671669682464, 1037.5232741264433, 0.0, 0.0, -0.324, -0.932, 0.15, 192.0, 0.0, 0.0, 0.0, 0.0, 0.0, 0.0, 0.0, 0.0, 0.0, 1.652240139499503E9, 0.0, 2022-05-10 22:35:39.499
13.0, 0.0, 0.0, 0.0, 0.0, -13357.670707424964, 1044.787591074418, 0.0, 0.0, -0.324, -0.932, 0.15, 192.0, 0.0, 0.0, 0.0, 0.0, 0.0, 0.0, 0.0, 0.0, 0.0, 1.6522401394995067E9, 0.0, 2022-05-10 22:35:39.499
14.0, 0.0, 0.0, 0.0, 0.0, -13367.661937196486, 1032.4941316239992, 0.0, 0.0, -0.324, -0.932, 0.15, 192.0, 0.0, 0.0, 0.0, 0.0, 0.0, 0.0, 0.0, 0.0, 0.0, 1.6522401394995117E9, 0.0, 2022-05-10 22:35:39.499
15.0, 0.0, 0.0, 0.0, 0.0, -13370.41120176449, 1034.0587537358706, 0.0, 0.0, -0.324, -0.932, 0.15, 192.0, 0.0, 0.0, 0.0, 0.0, 0.0, 0.0, 0.0, 0.0, 0.0, 1.6522401394995158E9, 0.0, 2022-05-10 22:35:39.499
16.0, 0.0, 0.0, 0.0, 0.0, -13359.660012681486, 1049.6155678767643, 0.0, 0.0, -0.324, -0.932, 0.15, 192.0, 0.0, 0.0, 0.0, 0.0, 0.0, 0.0, 0.0, 0.0, 0.0, 1.6522401394995203E9, 0.0, 2022-05-10 22:35:39.499
17.0, 0.0, 0.0, 0.0, 0.0, -13341.666858394965, 1063.6748151391525, 0.0, 0.0, -0.324, -0.932, 0.15, 192.0, 0.0, 0.0, 0.0, 0.0, 0.0, 0.0, 0.0, 0.0, 0.0, 1.6522401394995244E9, 0.0, 2022-05-10 22:35:39.499
18.0, 0.0, 0.0, 0.0, 0.0, -13322.153785485481, 1082.8079083928953, 0.0, 0.0, -0.328, -0.932, 0.156, 192.0, 245.0, 192.0, 226.0, 224.0, 4.0, 224.0, 0.0, 0.0, 0.0, 1.6522401394995284E9, 0.0, 2022-05-10 22:35:39.499
19.0, 0.0, 0.0, 0.0, 0.0, -13349.467617209866, 1059.0033005479934, 0.0, 0.0, -0.328, -0.932, 0.156, 192.0, 0.0, 0.0, 0.0, 0.0, 0.0, 0.0, 0.0, 0.0, 0.0, 1.6522401394995327E9, 0.0, 2022-05-10 22:35:39.499
20.0, 0.0, 0.0, 0.0, 0.0, -13356.329602757645, 1049.2579399654794, 0.0, 0.0, -0.328, -0.932, 0.156, 192.0, 0.0, 0.0, 0.0, 0.0, 0.0, 0.0, 0.0, 0.0, 0.0, 1.6522401394995372E9, 0.0, 2022-05-10 22:35:39.499
21.0, 0.0, 0.0, 0.0, 0.0, -13334.201375746892, 1073.174306532658, 0.0, 0.0, -0.328, -0.932, 0.156, 192.0, 0.0, 0.0, 0.0, 0.0, 0.0, 0.0, 0.0, 0.0, 0.0, 1.6522401394995413E9, 0.0, 2022-05-10 22:35:39.499
22.0, 0.0, 0.0, 0.0, 0.0, -13310.933209768917, 1097.3141905443897, 0.0, 0.0, -0.328, -0.932, 0.156, 192.0, 0.0, 0.0, 0.0, 0.0, 0.0, 0.0, 0.0, 0.0, 0.0, 1.6522401394995458E9, 0.0, 2022-05-10 22:35:39.499
23.0, 0.0, 0.0, 0.0, 0.0, -13325.975933787338, 1080.8409548808283, 0.0, 0.0, -0.328, -0.932, 0.156, 192.0, 0.0, 0.0, 0.0, 0.0, 0.0, 0.0, 0.0, 0.0, 0.0, 1.65224013949955E9, 0.0, 2022-05-10 22:35:39.499
24.0, 0.0, 0.0, 0.0, 0.0, -13354.16148354548, 1053.4153644341666, 0.0, 0.0, -0.328, -0.932, 0.156, 192.0, 0.0, 0.0, 0.0, 0.0, 0.0, 0.0, 0.0, 0.0, 0.0, 1.652240139499554E9, 0.0, 2022-05-10 22:35:39.499
25.0, 0.0, 0.0, 0.0, 0.0, -13323.78546283072, 1079.49985021351, 0.0, 0.0, -0.328, -0.932, 0.156, 192.0, 0.0, 0.0, 0.0, 0.0, 0.0, 0.0, 0.0, 0.0, 0.0, 1.6522401394995584E9, 0.0, 2022-05-10 22:35:39.499
26.0, 0.0, 0.0, 0.0, 0.0, -13334.82722459164, 1067.0722802963592, 0.0, 0.0, -0.328, -0.932, 0.156, 192.0, 0.0, 0.0, 0.0, 0.0, 0.0, 0.0, 0.0, 0.0, 0.0, 1.6522401394995627E9, 0.0, 2022-05-10 22:35:39.499
27.0, 0.0, 0.0, 0.0, 0.0, -13370.880588398051, 1031.9353380126165, 0.0, 0.0, -0.328, -0.932, 0.156, 192.0, 0.0, 0.0, 0.0, 0.0, 0.0, 0.0, 0.0, 0.0, 0.0, 1.6522401394995675E9, 0.0, 2022-05-10 22:35:39.499
28.0, 0.0, 0.0, 0.0, 0.0, -13364.242120294824, 1035.8468932922951, 0.0, 0.0, -0.328, -0.928, 0.15, 192.0, 245.0, 192.0, 227.0, 0.0, 4.0, 176.0, 0.0, 0.0, 0.0, 1.6522401394995716E9, 0.0, 2022-05-10 22:35:39.499
29.0, 0.0, 0.0, 0.0, 0.0, -13379.910693157995, 1022.1676256856473, 0.0, 0.0, -0.328, -0.928, 0.15, 192.0, 0.0, 0.0, 0.0, 0.0, 0.0, 0.0, 0.0, 0.0, 0.0, 1.6522401394995759E9, 0.0, 2022-05-10 22:35:39.499
30.0, 0.0, 0.0, 0.0, 0.0, -13384.515152515789, 1016.6914482940971, 0.0, 0.0, -0.328, -0.928, 0.15, 192.0, 0.0, 0.0, 0.0, 0.0, 0.0, 0.0, 0.0, 0.0, 0.0, 1.6522401394995801E9, 0.0, 2022-05-10 22:35:39.499
31.0, 0.0, 0.0, 0.0, 0.0, -13381.140039103037, 1021.3853146297115, 0.0, 0.0, -0.328, -0.928, 0.15, 192.0, 0.0, 0.0, 0.0, 0.0, 0.0, 0.0, 0.0, 0.0, 0.0, 1.652240139499585E9, 0.0, 2022-05-10 22:35:39.499
32.0, 0.0, 0.0, 0.0, 0.0, -13375.730916944853, 1028.984907744516, 0.0, 0.0, -0.328, -0.928, 0.15, 192.0, 0.0, 0.0, 0.0, 0.0, 0.0, 0.0, 0.0, 0.0, 0.0, 1.6522401394995887E9, 0.0, 2022-05-10 22:35:39.499
33.0, 0.0, 0.0, 0.0, 0.0, -13371.417030264978, 1031.9576897570719, 0.0, 0.0, -0.328, -0.928, 0.15, 192.0, 0.0, 0.0, 0.0, 0.0, 0.0, 0.0, 0.0, 0.0, 0.0, 1.6522401394995928E9, 0.0, 2022-05-10 22:35:39.499
34.0, 0.0, 0.0, 0.0, 0.0, -13366.700812184909, 1037.7467915709963, 0.0, 0.0, -0.328, -0.928, 0.15, 192.0, 0.0, 0.0, 0.0, 0.0, 0.0, 0.0, 0.0, 0.0, 0.0, 1.6522401394995975E9, 0.0, 2022-05-10 22:35:39.499
35.0, 0.0, 0.0, 0.0, 0.0, -13370.50060874231, 1035.5563206143763, 0.0, 0.0, -0.328, -0.928, 0.15, 192.0, 0.0, 0.0, 0.0, 0.0, 0.0, 0.0, 0.0, 0.0, 0.0, 1.652240139499602E9, 0.0, 2022-05-10 22:35:39.499
36.0, 0.0, 0.0, 0.0, 0.0, -13364.018602850272, 1040.429000905633, 0.0, 0.0, -0.328, -0.928, 0.15, 192.0, 0.0, 0.0, 0.0, 0.0, 0.0, 0.0, 0.0, 0.0, 0.0, 1.652240139499606E9, 0.0, 2022-05-10 22:35:39.499
37.0, 0.0, 0.0, 0.0, 0.0, -13373.249873310313, 1030.1024949672812, 0.0, 0.0, -0.328, -0.928, 0.15, 192.0, 0.0, 0.0, 0.0, 0.0, 0.0, 0.0, 0.0, 0.0, 0.0, 1.6522401394996104E9, 0.0, 2022-05-10 22:35:39.499
38.0, 0.0, 0.0, 0.0, 0.0, -13384.582207749154, 1021.3406111408009, 0.0, 0.0, -0.33, -0.93, 0.158, 192.0, 245.0, 176.0, 226.0, 240.0, 4.0, 240.0, 0.0, 0.0, 0.0, 1.6522401394996147E9, 0.0, 2022-05-10 22:35:39.499
39.0, 0.0, 0.0, 0.0, 0.0, -13361.403448749, 1041.4124776616666, 0.0, 0.0, -0.33, -0.93, 0.158, 192.0, 0.0, 0.0, 0.0, 0.0, 0.0, 0.0, 0.0, 0.0, 0.0, 1.6522401394996195E9, 0.0, 2022-05-10 22:35:39.499
40.0, 0.0, 0.0, 0.0, 0.0, -13362.006945849294, 1038.6408613492085, 0.0, 0.0, -0.33, -0.93, 0.158, 192.0, 0.0, 0.0, 0.0, 0.0, 0.0, 0.0, 0.0, 0.0, 0.0, 1.6522401394996235E9, 0.0, 2022-05-10 22:35:39.499
41.0, 0.0, 0.0, 0.0, 0.0, -13331.899146067995, 1065.5747134178537, 0.0, 0.0, -0.33, -0.93, 0.158, 192.0, 0.0, 0.0, 0.0, 0.0, 0.0, 0.0, 0.0, 0.0, 0.0, 1.6522401394996278E9, 0.0, 2022-05-10 22:35:39.499
42.0, 0.0, 0.0, 0.0, 0.0, -13335.967163558862, 1060.724384871052, 0.0, 0.0, -0.33, -0.93, 0.158, 192.0, 0.0, 0.0, 0.0, 0.0, 0.0, 0.0, 0.0, 0.0, 0.0, 1.652240139499632E9, 0.0, 2022-05-10 22:35:39.499
43.0, 0.0, 0.0, 0.0, 0.0, -13352.149826544504, 1043.9605765295717, 0.0, 0.0, -0.33, -0.93, 0.158, 192.0, 0.0, 0.0, 0.0, 0.0, 0.0, 0.0, 0.0, 0.0, 0.0, 1.6522401394996364E9, 0.0, 2022-05-10 22:35:39.499
44.0, 0.0, 0.0, 0.0, 0.0, -13349.221748020858, 1042.0606782508705, 0.0, 0.0, -0.33, -0.93, 0.158, 192.0, 0.0, 0.0, 0.0, 0.0, 0.0, 0.0, 0.0, 0.0, 0.0, 1.6522401394996407E9, 0.0, 2022-05-10 22:35:39.499
45.0, 0.0, 0.0, 0.0, 0.0, -13356.26254752428, 1035.1986927030914, 0.0, 0.0, -0.33, -0.93, 0.158, 192.0, 0.0, 0.0, 0.0, 0.0, 0.0, 0.0, 0.0, 0.0, 0.0, 1.6522401394996448E9, 0.0, 2022-05-10 22:35:39.499
46.0, 0.0, 0.0, 0.0, 0.0, -13356.039030079726, 1038.9761375160383, 0.0, 0.0, -0.33, -0.93, 0.158, 192.0, 0.0, 0.0, 0.0, 0.0, 0.0, 0.0, 0.0, 0.0, 0.0, 1.6522401394996488E9, 0.0, 2022-05-10 22:35:39.499
47.0, 0.0, 0.0, 0.0, 0.0, -13356.463713224377, 1038.01501250446, 0.0, 0.0, -0.33, -0.93, 0.158, 192.0, 0.0, 0.0, 0.0, 0.0, 0.0, 0.0, 0.0, 0.0, 0.0, 1.652240139499653E9, 0.0, 2022-05-10 22:35:39.499
48.0, 0.0, 0.0, 0.0, 0.0, -13365.717335428875, 1026.72738155453, 0.0, 0.0, -0.322, -0.932, 0.154, 192.0, 245.0, 240.0, 226.0, 224.0, 4.0, 208.0, 0.0, 0.0, 0.0, 1.652240139499658E9, 0.0, 2022-05-10 22:35:39.499
49.0, 0.0, 0.0, 0.0, 0.0, -13380.760059447297, 1016.3114686383568, 0.0, 0.0, -0.322, -0.932, 0.154, 192.0, 0.0, 0.0, 0.0, 0.0, 0.0, 0.0, 0.0, 0.0, 0.0, 1.652240139499663E9, 0.0, 2022-05-10 22:35:39.499
50.0, 0.0, 0.0, 0.0, 0.0, -13384.403393793511, 1014.0762941928261, 0.0, 0.0, -0.322, -0.932, 0.154, 192.0, 0.0, 0.0, 0.0, 0.0, 0.0, 0.0, 0.0, 0.0, 0.0, 1.6522401394996672E9, 0.0, 2022-05-10 22:35:39.499
51.0, 0.0, 0.0, 0.0, 0.0, -13375.529751244754, 1017.6078698167646, 0.0, 0.0, -0.322, -0.932, 0.154, 192.0, 0.0, 0.0, 0.0, 0.0, 0.0, 0.0, 0.0, 0.0, 0.0, 1.6522401394996715E9, 0.0, 2022-05-10 22:35:39.499
52.0, 0.0, 0.0, 0.0, 0.0, -13379.865989669084, 1008.756579012463, 0.0, 0.0, -0.322, -0.932, 0.154, 192.0, 0.0, 0.0, 0.0, 0.0, 0.0, 0.0, 0.0, 0.0, 0.0, 1.6522401394996758E9, 0.0, 2022-05-10 22:35:39.499
53.0, 0.0, 0.0, 0.0, 0.0, -13342.918556084462, 1046.5757306308426, 0.0, 0.0, -0.322, -0.932, 0.154, 192.0, 0.0, 0.0, 0.0, 0.0, 0.0, 0.0, 0.0, 0.0, 0.0, 1.65224013949968E9, 0.0, 2022-05-10 22:35:39.499
54.0, 0.0, 0.0, 0.0, 0.0, -13351.345163744112, 1041.9042160396834, 0.0, 0.0, -0.322, -0.932, 0.154, 192.0, 0.0, 0.0, 0.0, 0.0, 0.0, 0.0, 0.0, 0.0, 0.0, 1.652240139499684E9, 0.0, 2022-05-10 22:35:39.499
55.0, 0.0, 0.0, 0.0, 0.0, -13350.115817799071, 1042.4630096510662, 0.0, 0.0, -0.322, -0.932, 0.154, 192.0, 0.0, 0.0, 0.0, 0.0, 0.0, 0.0, 0.0, 0.0, 0.0, 1.6522401394996884E9, 0.0, 2022-05-10 22:35:39.499
56.0, 0.0, 0.0, 0.0, 0.0, -13335.58718390312, 1059.11505927027, 0.0, 0.0, -0.322, -0.932, 0.154, 192.0, 0.0, 0.0, 0.0, 0.0, 0.0, 0.0, 0.0, 0.0, 0.0, 1.6522401394996927E9, 0.0, 2022-05-10 22:35:39.499
57.0, 0.0, 0.0, 0.0, 0.0, -13354.40735273449, 1043.2229689625465, 0.0, 0.0, -0.322, -0.932, 0.154, 192.0, 0.0, 0.0, 0.0, 0.0, 0.0, 0.0, 0.0, 0.0, 0.0, 1.6522401394996967E9, 0.0, 2022-05-10 22:35:39.499
58.0, 0.0, 0.0, 0.0, 0.0, -13396.115707888093, 999.4806050635107, 0.0, 0.0, -0.328, -0.928, 0.156, 192.0, 245.0, 192.0, 227.0, 0.0, 4.0, 224.0, 0.0, 0.0, 0.0, 1.6522401394997013E9, 0.0, 2022-05-10 22:35:39.499
59.0, 0.0, 0.0, 0.0, 0.0, -13375.909730900496, 1022.4134948746556, 0.0, 0.0, -0.328, -0.928, 0.156, 192.0, 0.0, 0.0, 0.0, 0.0, 0.0, 0.0, 0.0, 0.0, 0.0, 1.6522401394997053E9, 0.0, 2022-05-10 22:35:39.499
60.0, 0.0, 0.0, 0.0, 0.0, -13346.964221830873, 1049.3473469433006, 0.0, 0.0, -0.328, -0.928, 0.156, 192.0, 0.0, 0.0, 0.0, 0.0, 0.0, 0.0, 0.0, 0.0, 0.0, 1.6522401394997094E9, 0.0, 2022-05-10 22:35:39.499
61.0, 0.0, 0.0, 0.0, 0.0, -13351.367515488568, 1047.246282964502, 0.0, 0.0, -0.328, -0.928, 0.156, 192.0, 0.0, 0.0, 0.0, 0.0, 0.0, 0.0, 0.0, 0.0, 0.0, 1.6522401394997137E9, 0.0, 2022-05-10 22:35:39.499
62.0, 0.0, 0.0, 0.0, 0.0, -13369.69594594192, 1031.756524056974, 0.0, 0.0, -0.328, -0.928, 0.156, 192.0, 0.0, 0.0, 0.0, 0.0, 0.0, 0.0, 0.0, 0.0, 0.0, 1.652240139499718E9, 0.0, 2022-05-10 22:35:39.499
63.0, 0.0, 0.0, 0.0, 0.0, -13371.059402353694, 1031.8682827792506, 0.0, 0.0, -0.328, -0.928, 0.156, 192.0, 0.0, 0.0, 0.0, 0.0, 0.0, 0.0, 0.0, 0.0, 0.0, 1.6522401394997222E9, 0.0, 2022-05-10 22:35:39.499
64.0, 0.0, 0.0, 0.0, 0.0, -13354.876739368052, 1048.0062422759822, 0.0, 0.0, -0.328, -0.928, 0.156, 192.0, 0.0, 0.0, 0.0, 0.0, 0.0, 0.0, 0.0, 0.0, 0.0, 1.6522401394997263E9, 0.0, 2022-05-10 22:35:39.499
65.0, 0.0, 0.0, 0.0, 0.0, -13365.292652284224, 1038.663213093664, 0.0, 0.0, -0.328, -0.928, 0.156, 192.0, 0.0, 0.0, 0.0, 0.0, 0.0, 0.0, 0.0, 0.0, 0.0, 1.6522401394997303E9, 0.0, 2022-05-10 22:35:39.499
66.0, 0.0, 0.0, 0.0, 0.0, -13359.682364425942, 1045.4134399191666, 0.0, 0.0, -0.328, -0.928, 0.156, 192.0, 0.0, 0.0, 0.0, 0.0, 0.0, 0.0, 0.0, 0.0, 0.0, 1.652240139499735E9, 0.0, 2022-05-10 22:35:39.499
67.0, 0.0, 0.0, 0.0, 0.0, -13373.272225054769, 1033.723477569041, 0.0, 0.0, -0.332, -0.93, 0.154, 192.0, 245.0, 160.0, 226.0, 240.0, 4.0, 208.0, 0.0, 0.0, 0.0, 1.6522401394997392E9, 0.0, 2022-05-10 22:35:39.499
68.0, 0.0, 0.0, 0.0, 0.0, -13374.054536110705, 1033.7458293134964, 0.0, 0.0, -0.332, -0.93, 0.154, 192.0, 0.0, 0.0, 0.0, 0.0, 0.0, 0.0, 0.0, 0.0, 0.0, 1.6522401394997432E9, 0.0, 2022-05-10 22:35:39.499
69.0, 0.0, 0.0, 0.0, 0.0, -13326.959410543372, 1077.8234693793618, 0.0, 0.0, -0.332, -0.93, 0.154, 192.0, 0.0, 0.0, 0.0, 0.0, 0.0, 0.0, 0.0, 0.0, 0.0, 1.6522401394997475E9, 0.0, 2022-05-10 22:35:39.499
70.0, 0.0, 0.0, 0.0, 0.0, -13320.790329073709, 1086.0265595944595, 0.0, 0.0, -0.332, -0.93, 0.154, 192.0, 0.0, 0.0, 0.0, 0.0, 0.0, 0.0, 0.0, 0.0, 0.0, 1.6522401398953543E9, 0.0, 2022-05-10 22:35:39.895
71.0, 0.0, 0.0, 0.0, 0.0, -13343.052666551193, 1064.3453674728116, 0.0, 0.0, -0.332, -0.93, 0.154, 192.0, 0.0, 0.0, 0.0, 0.0, 0.0, 0.0, 0.0, 0.0, 0.0, 1.6522401398953767E9, 0.0, 2022-05-10 22:35:39.895
72.0, 0.0, 0.0, 0.0, 0.0, -13335.140149014014, 1068.4804401970434, 0.0, 0.0, -0.332, -0.93, 0.154, 192.0, 0.0, 0.0, 0.0, 0.0, 0.0, 0.0, 0.0, 0.0, 0.0, 1.6522401398953838E9, 0.0, 2022-05-10 22:35:39.895
73.0, 0.0, 0.0, 0.0, 0.0, -13355.413181234979, 1049.2802917099348, 0.0, 0.0, -0.332, -0.93, 0.154, 192.0, 0.0, 0.0, 0.0, 0.0, 0.0, 0.0, 0.0, 0.0, 0.0, 1.6522401398953903E9, 0.0, 2022-05-10 22:35:39.895
74.0, 0.0, 0.0, 0.0, 0.0, -13352.172178288958, 1053.1694952451583, 0.0, 0.0, -0.332, -0.93, 0.154, 192.0, 0.0, 0.0, 0.0, 0.0, 0.0, 0.0, 0.0, 0.0, 0.0, 1.6522401398954055E9, 0.0, 2022-05-10 22:35:39.895
75.0, 0.0, 0.0, 0.0, 0.0, -13341.622154906054, 1065.3511959733005, 0.0, 0.0, -0.332, -0.93, 0.154, 192.0, 0.0, 0.0, 0.0, 0.0, 0.0, 0.0, 0.0, 0.0, 0.0, 1.652240139895412E9, 0.0, 2022-05-10 22:35:39.895
76.0, 0.0, 0.0, 0.0, 0.0, -13360.688192926431, 1042.3512509287896, 0.0, 0.0, -0.332, -0.93, 0.154, 192.0, 0.0, 0.0, 0.0, 0.0, 0.0, 0.0, 0.0, 0.0, 0.0, 1.6522401398954177E9, 0.0, 2022-05-10 22:35:39.895
77.0, 0.0, 0.0, 0.0, 0.0, -13357.894224869517, 1046.173399230647, 0.0, 0.0, -0.326, -0.926, 0.16, 192.0, 245.0, 208.0, 227.0, 16.0, 5.0, 0.0, 0.0, 0.0, 0.0, 1.6522401398954227E9, 0.0, 2022-05-10 22:35:39.895
78.0, 0.0, 0.0, 0.0, 0.0, -13349.892300354517, 1052.20837023358, 0.0, 0.0, -0.326, -0.926, 0.16, 192.0, 0.0, 0.0, 0.0, 0.0, 0.0, 0.0, 0.0, 0.0, 0.0, 1.652240139895429E9, 0.0, 2022-05-10 22:35:39.895
79.0, 0.0, 0.0, 0.0, 0.0, -13321.282067451724, 1078.717539157574, 0.0, 0.0, -0.326, -0.926, 0.16, 192.0, 0.0, 0.0, 0.0, 0.0, 0.0, 0.0, 0.0, 0.0, 0.0, 1.6522401398954346E9, 0.0, 2022-05-10 22:35:39.895
80.0, 0.0, 0.0, 0.0, 0.0, -13318.666913350453, 1087.591181706331, 0.0, 0.0, -0.326, -0.926, 0.16, 192.0, 0.0, 0.0, 0.0, 0.0, 0.0, 0.0, 0.0, 0.0, 0.0, 1.6522401398954413E9, 0.0, 2022-05-10 22:35:39.895
81.0, 0.0, 0.0, 0.0, 0.0, -13333.843747835606, 1067.6757773966524, 0.0, 0.0, -0.326, -0.926, 0.16, 192.0, 0.0, 0.0, 0.0, 0.0, 0.0, 0.0, 0.0, 0.0, 0.0, 1.6522401398954482E9, 0.0, 2022-05-10 22:35:39.895
82.0, 0.0, 0.0, 0.0, 0.0, -13323.96427678636, 1078.3822629907445, 0.0, 0.0, -0.326, -0.926, 0.16, 192.0, 0.0, 0.0, 0.0, 0.0, 0.0, 0.0, 0.0, 0.0, 0.0, 1.6522401398954532E9, 0.0, 2022-05-10 22:35:39.895
83.0, 0.0, 0.0, 0.0, 0.0, -13324.277201208735, 1072.302588498901, 0.0, 0.0, -0.326, -0.926, 0.16, 192.0, 0.0, 0.0, 0.0, 0.0, 0.0, 0.0, 0.0, 0.0, 0.0, 1.6522401398954592E9, 0.0, 2022-05-10 22:35:39.895
84.0, 0.0, 0.0, 0.0, 0.0, -13316.364683671556, 1079.5222019579653, 0.0, 0.0, -0.326, -0.926, 0.16, 192.0, 0.0, 0.0, 0.0, 0.0, 0.0, 0.0, 0.0, 0.0, 0.0, 1.6522401398954654E9, 0.0, 2022-05-10 22:35:39.895
85.0, 0.0, 0.0, 0.0, 0.0, -13340.616326405565, 1056.075222024348, 0.0, 0.0, -0.326, -0.926, 0.16, 192.0, 0.0, 0.0, 0.0, 0.0, 0.0, 0.0, 0.0, 0.0, 0.0, 1.652240139895471E9, 0.0, 2022-05-10 22:35:39.895
86.0, 0.0, 0.0, 0.0, 0.0, -13359.861178381585, 1034.6398990917087, 0.0, 0.0, -0.326, -0.926, 0.16, 192.0, 0.0, 0.0, 0.0, 0.0, 0.0, 0.0, 0.0, 0.0, 0.0, 1.6522401398954763E9, 0.0, 2022-05-10 22:35:39.895
87.0, 0.0, 0.0, 0.0, 0.0, -13323.293724452702, 1075.3647774892781, 0.0, 0.0, -0.326, -0.93, 0.158, 192.0, 245.0, 208.0, 226.0, 240.0, 4.0, 240.0, 0.0, 0.0, 0.0, 1.6522401398954816E9, 0.0, 2022-05-10 22:35:39.895
88.0, 0.0, 0.0, 0.0, 0.0, -13290.570770570133, 1110.3676093062888, 0.0, 0.0, -0.326, -0.93, 0.158, 192.0, 0.0, 0.0, 0.0, 0.0, 0.0, 0.0, 0.0, 0.0, 0.0, 1.6522401398954873E9, 0.0, 2022-05-10 22:35:39.895
89.0, 0.0, 0.0, 0.0, 0.0, -13317.415215660956, 1083.0314258374485, 0.0, 0.0, -0.326, -0.93, 0.158, 192.0, 0.0, 0.0, 0.0, 0.0, 0.0, 0.0, 0.0, 0.0, 0.0, 1.6522401398954928E9, 0.0, 2022-05-10 22:35:39.895
90.0, 0.0, 0.0, 0.0, 0.0, -13333.173195501948, 1066.4017279626999, 0.0, 0.0, -0.326, -0.93, 0.158, 192.0, 0.0, 0.0, 0.0, 0.0, 0.0, 0.0, 0.0, 0.0, 0.0, 1.6522401398954978E9, 0.0, 2022-05-10 22:35:39.895
91.0, 0.0, 0.0, 0.0, 0.0, -13348.394733476012, 1050.01789927696, 0.0, 0.0, -0.326, -0.93, 0.158, 192.0, 0.0, 0.0, 0.0, 0.0, 0.0, 0.0, 0.0, 0.0, 0.0, 1.6522401398955028E9, 0.0, 2022-05-10 22:35:39.895
92.0, 0.0, 0.0, 0.0, 0.0, -13345.936041585928, 1053.0577365228817, 0.0, 0.0, -0.326, -0.93, 0.158, 192.0, 0.0, 0.0, 0.0, 0.0, 0.0, 0.0, 0.0, 0.0, 0.0, 1.6522401398955078E9, 0.0, 2022-05-10 22:35:39.895
93.0, 0.0, 0.0, 0.0, 0.0, -13333.128492013037, 1062.3784139607446, 0.0, 0.0, -0.326, -0.93, 0.158, 192.0, 0.0, 0.0, 0.0, 0.0, 0.0, 0.0, 0.0, 0.0, 0.0, 1.6522401398955128E9, 0.0, 2022-05-10 22:35:39.895
94.0, 0.0, 0.0, 0.0, 0.0, -13344.036143307227, 1054.175323745647, 0.0, 0.0, -0.326, -0.93, 0.158, 192.0, 0.0, 0.0, 0.0, 0.0, 0.0, 0.0, 0.0, 0.0, 0.0, 1.652240139895518E9, 0.0, 2022-05-10 22:35:39.895
95.0, 0.0, 0.0, 0.0, 0.0, -13348.506492198288, 1053.460067923077, 0.0, 0.0, -0.326, -0.93, 0.158, 192.0, 0.0, 0.0, 0.0, 0.0, 0.0, 0.0, 0.0, 0.0, 0.0, 1.6522401398955233E9, 0.0, 2022-05-10 22:35:39.895
96.0, 0.0, 0.0, 0.0, 0.0, -13378.949568146416, 1020.8041692738735, 0.0, 0.0, -0.326, -0.93, 0.158, 192.0, 0.0, 0.0, 0.0, 0.0, 0.0, 0.0, 0.0, 0.0, 0.0, 1.6522401398955288E9, 0.0, 2022-05-10 22:35:39.895
97.0, 0.0, 0.0, 0.0, 0.0, -13383.88930367104, 1011.7740645139295, 0.0, 0.0, -0.326, -0.932, 0.156, 192.0, 245.0, 208.0, 226.0, 224.0, 4.0, 224.0, 0.0, 0.0, 0.0, 1.6522401398955345E9, 0.0, 2022-05-10 22:35:39.895
98.0, 0.0, 0.0, 0.0, 0.0, -13359.12357081456, 1035.399858403189, 0.0, 0.0, -0.326, -0.932, 0.156, 192.0, 0.0, 0.0, 0.0, 0.0, 0.0, 0.0, 0.0, 0.0, 0.0, 1.6522401398955405E9, 0.0, 2022-05-10 22:35:39.895
99.0, 0.0, 0.0, 0.0, 0.0, -13359.5035504703, 1032.404724646178, 0.0, 0.0, -0.326, -0.932, 0.156, 192.0, 0.0, 0.0, 0.0, 0.0, 0.0, 0.0, 0.0, 0.0, 0.0, 1.6522401398955455E9, 0.0, 2022-05-10 22:35:39.895
100.0, 0.0, 0.0, 0.0, 0.0, -13373.249873310313, 1019.0383814619044, 0.0, 0.0, -0.326, -0.932, 0.156, 192.0, 0.0, 0.0, 0.0, 0.0, 0.0, 0.0, 0.0, 0.0, 0.0, 1.6522401398955507E9, 0.0, 2022-05-10 22:35:39.895
101.0, 0.0, 0.0, 0.0, 0.0, -13404.02822542527, 993.8926689496839, 0.0, 0.0, -0.326, -0.932, 0.156, 192.0, 0.0, 0.0, 0.0, 0.0, 0.0, 0.0, 0.0, 0.0, 0.0, 1.6522401398955567E9, 0.0, 2022-05-10 22:35:39.895
102.0, 0.0, 0.0, 0.0, 0.0, -13417.886306987562, 974.8489826737622, 0.0, 0.0, -0.326, -0.932, 0.156, 192.0, 0.0, 0.0, 0.0, 0.0, 0.0, 0.0, 0.0, 0.0, 0.0, 1.6522401398955626E9, 0.0, 2022-05-10 22:35:39.895
103.0, 0.0, 0.0, 0.0, 0.0, -13394.484030542855, 995.3902358281895, 0.0, 0.0, -0.326, -0.932, 0.156, 192.0, 0.0, 0.0, 0.0, 0.0, 0.0, 0.0, 0.0, 0.0, 0.0, 1.652240139895568E9, 0.0, 2022-05-10 22:35:39.895
104.0, 0.0, 0.0, 0.0, 0.0, -13373.652204710508, 1019.9771547290272, 0.0, 0.0, -0.326, -0.932, 0.156, 192.0, 0.0, 0.0, 0.0, 0.0, 0.0, 0.0, 0.0, 0.0, 0.0, 1.6522401398955731E9, 0.0, 2022-05-10 22:35:39.895
105.0, 0.0, 0.0, 0.0, 0.0, -13365.538521473232, 1026.2579949209685, 0.0, 0.0, -0.326, -0.932, 0.156, 192.0, 0.0, 0.0, 0.0, 0.0, 0.0, 0.0, 0.0, 0.0, 0.0, 1.6522401398955789E9, 0.0, 2022-05-10 22:35:39.895
106.0, 0.0, 0.0, 0.0, 0.0, -13388.22554209537, 1004.2191748880357, 0.0, 0.0, -0.326, -0.932, 0.156, 192.0, 0.0, 0.0, 0.0, 0.0, 0.0, 0.0, 0.0, 0.0, 0.0, 1.652240139895584E9, 0.0, 2022-05-10 22:35:39.895
107.0, 0.0, 0.0, 0.0, 0.0, -13398.306178844712, 997.6030585292648, 0.0, 0.0, -0.328, -0.93, 0.156, 192.0, 245.0, 192.0, 226.0, 240.0, 4.0, 224.0, 0.0, 0.0, 0.0, 1.65224013989559E9, 0.0, 2022-05-10 22:35:39.895
108.0, 0.0, 0.0, 0.0, 0.0, -13364.219768550369, 1029.0519629778819, 0.0, 0.0, -0.328, -0.93, 0.156, 192.0, 0.0, 0.0, 0.0, 0.0, 0.0, 0.0, 0.0, 0.0, 0.0, 1.652240139895596E9, 0.0, 2022-05-10 22:35:39.895
109.0, 0.0, 0.0, 0.0, 0.0, -13344.237309007325, 1051.4260591776442, 0.0, 0.0, -0.328, -0.93, 0.156, 192.0, 0.0, 0.0, 0.0, 0.0, 0.0, 0.0, 0.0, 0.0, 0.0, 1.6522401398956015E9, 0.0, 2022-05-10 22:35:39.895
110.0, 0.0, 0.0, 0.0, 0.0, -13337.844710093106, 1059.3162249703676, 0.0, 0.0, -0.328, -0.93, 0.156, 192.0, 0.0, 0.0, 0.0, 0.0, 0.0, 0.0, 0.0, 0.0, 0.0, 1.652240139895607E9, 0.0, 2022-05-10 22:35:39.895
111.0, 0.0, 0.0, 0.0, 0.0, -13342.69503863991, 1050.1520097436917, 0.0, 0.0, -0.328, -0.93, 0.156, 192.0, 0.0, 0.0, 0.0, 0.0, 0.0, 0.0, 0.0, 0.0, 0.0, 1.6522401398956127E9, 0.0, 2022-05-10 22:35:39.895
112.0, 0.0, 0.0, 0.0, 0.0, -13392.181800863958, 1001.6040207867647, 0.0, 0.0, -0.328, -0.93, 0.156, 192.0, 0.0, 0.0, 0.0, 0.0, 0.0, 0.0, 0.0, 0.0, 0.0, 1.6522401398956184E9, 0.0, 2022-05-10 22:35:39.895
113.0, 0.0, 0.0, 0.0, 0.0, -13396.74155673284, 1001.8722417202284, 0.0, 0.0, -0.328, -0.93, 0.156, 192.0, 0.0, 0.0, 0.0, 0.0, 0.0, 0.0, 0.0, 0.0, 0.0, 1.6522401398956242E9, 0.0, 2022-05-10 22:35:39.895
114.0, 0.0, 0.0, 0.0, 0.0, -13403.22356262488, 994.7420352389855, 0.0, 0.0, -0.328, -0.93, 0.156, 192.0, 0.0, 0.0, 0.0, 0.0, 0.0, 0.0, 0.0, 0.0, 0.0, 1.65224013989563E9, 0.0, 2022-05-10 22:35:39.895
115.0, 0.0, 0.0, 0.0, 0.0, -13417.349865120634, 980.0792908763041, 0.0, 0.0, -0.328, -0.93, 0.156, 192.0, 0.0, 0.0, 0.0, 0.0, 0.0, 0.0, 0.0, 0.0, 0.0, 1.652240139895636E9, 0.0, 2022-05-10 22:35:39.895
116.0, 0.0, 0.0, 0.0, 0.0, -13400.049614912226, 993.3785788272118, 0.0, 0.0, -0.328, -0.93, 0.156, 192.0, 0.0, 0.0, 0.0, 0.0, 0.0, 0.0, 0.0, 0.0, 0.0, 1.652240139895642E9, 0.0, 2022-05-10 22:35:39.895
117.0, 0.0, 0.0, 0.0, 0.0, -13384.26928332678, 1009.985924957505, 0.0, 0.0, -0.328, -0.926, 0.156, 192.0, 245.0, 192.0, 227.0, 16.0, 4.0, 224.0, 0.0, 0.0, 0.0, 1.6522401398956487E9, 0.0, 2022-05-10 22:35:39.895
118.0, 0.0, 0.0, 0.0, 0.0, -13393.165277619992, 1002.0510556758709, 0.0, 0.0, -0.328, -0.926, 0.156, 192.0, 0.0, 0.0, 0.0, 0.0, 0.0, 0.0, 0.0, 0.0, 0.0, 1.652240139895655E9, 0.0, 2022-05-10 22:35:39.895
119.0, 0.0, 0.0, 0.0, 0.0, -13404.162335892002, 985.6225235012203, 0.0, 0.0, -0.328, -0.926, 0.156, 192.0, 0.0, 0.0, 0.0, 0.0, 0.0, 0.0, 0.0, 0.0, 0.0, 1.6522401398956609E9, 0.0, 2022-05-10 22:35:39.895
120.0, 0.0, 0.0, 0.0, 0.0, -13403.737652747352, 988.081215391304, 0.0, 0.0, -0.328, -0.926, 0.156, 192.0, 0.0, 0.0, 0.0, 0.0, 0.0, 0.0, 0.0, 0.0, 0.0, 1.6522401398956666E9, 0.0, 2022-05-10 22:35:39.895
121.0, 0.0, 0.0, 0.0, 0.0, -13369.226559308358, 1029.0743147223372, 0.0, 0.0, -0.328, -0.926, 0.156, 192.0, 0.0, 0.0, 0.0, 0.0, 0.0, 0.0, 0.0, 0.0, 0.0, 1.6522401398956723E9, 0.0, 2022-05-10 22:35:39.895
122.0, 0.0, 0.0, 0.0, 0.0, -13358.609480692086, 1040.630166605731, 0.0, 0.0, -0.328, -0.926, 0.156, 192.0, 0.0, 0.0, 0.0, 0.0, 0.0, 0.0, 0.0, 0.0, 0.0, 1.6522401398956957E9, 0.0, 2022-05-10 22:35:39.895
123.0, 0.0, 0.0, 0.0, 0.0, -13362.901015627505, 1035.9139485256612, 0.0, 0.0, -0.328, -0.926, 0.156, 192.0, 0.0, 0.0, 0.0, 0.0, 0.0, 0.0, 0.0, 0.0, 0.0, 1.6522401398957007E9, 0.0, 2022-05-10 22:35:39.895
124.0, 0.0, 0.0, 0.0, 0.0, -13381.229446080857, 1018.8148640173512, 0.0, 0.0, -0.328, -0.926, 0.156, 192.0, 0.0, 0.0, 0.0, 0.0, 0.0, 0.0, 0.0, 0.0, 0.0, 1.6522401398957076E9, 0.0, 2022-05-10 22:35:39.895
125.0, 0.0, 0.0, 0.0, 0.0, -13394.215809609392, 1003.7944917433849, 0.0, 0.0, -0.328, -0.926, 0.156, 192.0, 0.0, 0.0, 0.0, 0.0, 0.0, 0.0, 0.0, 0.0, 0.0, 1.6522401398957136E9, 0.0, 2022-05-10 22:35:39.895
126.0, 0.0, 0.0, 0.0, 0.0, -13405.257571370314, 999.212384130047, 0.0, 0.0, -0.328, -0.926, 0.156, 192.0, 0.0, 0.0, 0.0, 0.0, 0.0, 0.0, 0.0, 0.0, 0.0, 1.6522401398957207E9, 0.0, 2022-05-10 22:35:39.895
127.0, 0.0, 0.0, 0.0, 0.0, -13382.101164114614, 1022.7264192970299, 0.0, 0.0, -0.332, -0.928, 0.154, 192.0, 245.0, 160.0, 227.0, 0.0, 4.0, 208.0, 0.0, 0.0, 0.0, 1.6522401398957267E9, 0.0, 2022-05-10 22:35:39.895
128.0, 0.0, 0.0, 0.0, 0.0, -13379.88834141354, 1024.335744897812, 0.0, 0.0, -0.332, -0.928, 0.154, 192.0, 0.0, 0.0, 0.0, 0.0, 0.0, 0.0, 0.0, 0.0, 0.0, 1.6522401398957324E9, 0.0, 2022-05-10 22:35:39.895
129.0, 0.0, 0.0, 0.0, 0.0, -13409.03501618326, 990.696369492575, 0.0, 0.0, -0.332, -0.928, 0.154, 192.0, 0.0, 0.0, 0.0, 0.0, 0.0, 0.0, 0.0, 0.0, 0.0, 1.6522401398957376E9, 0.0, 2022-05-10 22:35:39.895
130.0, 0.0, 0.0, 0.0, 0.0, -13422.110786689615, 971.697386705564, 0.0, 0.0, -0.332, -0.928, 0.154, 192.0, 0.0, 0.0, 0.0, 0.0, 0.0, 0.0, 0.0, 0.0, 0.0, 1.6522401398957427E9, 0.0, 2022-05-10 22:35:39.895
131.0, 0.0, 0.0, 0.0, 0.0, -13395.869838699084, 998.7206457520301, 0.0, 0.0, -0.332, -0.928, 0.154, 192.0, 0.0, 0.0, 0.0, 0.0, 0.0, 0.0, 0.0, 0.0, 0.0, 1.6522401398957582E9, 0.0, 2022-05-10 22:35:39.895
132.0, 0.0, 0.0, 0.0, 0.0, -13381.274149569768, 1014.5233290819323, 0.0, 0.0, -0.332, -0.928, 0.154, 192.0, 0.0, 0.0, 0.0, 0.0, 0.0, 0.0, 0.0, 0.0, 0.0, 1.6522401398957646E9, 0.0, 2022-05-10 22:35:39.895
133.0, 0.0, 0.0, 0.0, 0.0, -13375.328585544657, 1019.82069251784, 0.0, 0.0, -0.332, -0.928, 0.154, 192.0, 0.0, 0.0, 0.0, 0.0, 0.0, 0.0, 0.0, 0.0, 0.0, 1.6522401398957713E9, 0.0, 2022-05-10 22:35:39.895
134.0, 0.0, 0.0, 0.0, 0.0, -13367.594881963121, 1030.0577914783707, 0.0, 0.0, -0.332, -0.928, 0.154, 192.0, 0.0, 0.0, 0.0, 0.0, 0.0, 0.0, 0.0, 0.0, 0.0, 1.6522401398957765E9, 0.0, 2022-05-10 22:35:39.895
135.0, 0.0, 0.0, 0.0, 0.0, -13369.450076752912, 1029.655460078175, 0.0, 0.0, -0.332, -0.928, 0.154, 192.0, 0.0, 0.0, 0.0, 0.0, 0.0, 0.0, 0.0, 0.0, 0.0, 1.6522401398957827E9, 0.0, 2022-05-10 22:35:39.895
136.0, 0.0, 0.0, 0.0, 0.0, -13338.984649060327, 1056.0305185354375, 0.0, 0.0, -0.33, -0.93, 0.156, 192.0, 245.0, 176.0, 226.0, 240.0, 4.0, 224.0, 0.0, 0.0, 0.0, 1.652240139895789E9, 0.0, 2022-05-10 22:35:39.895
137.0, 0.0, 0.0, 0.0, 0.0, -13316.521145882743, 1077.2870275124344, 0.0, 0.0, -0.33, -0.93, 0.156, 192.0, 0.0, 0.0, 0.0, 0.0, 0.0, 0.0, 0.0, 0.0, 0.0, 1.6522401398957944E9, 0.0, 2022-05-10 22:35:39.895
138.0, 0.0, 0.0, 0.0, 0.0, -13345.712524141374, 1053.013033033971, 0.0, 0.0, -0.33, -0.93, 0.156, 192.0, 0.0, 0.0, 0.0, 0.0, 0.0, 0.0, 0.0, 0.0, 0.0, 1.6522401398958013E9, 0.0, 2022-05-10 22:35:39.895
139.0, 0.0, 0.0, 0.0, 0.0, -13345.801931119197, 1055.2035039905911, 0.0, 0.0, -0.33, -0.93, 0.156, 192.0, 0.0, 0.0, 0.0, 0.0, 0.0, 0.0, 0.0, 0.0, 0.0, 1.6522401398958063E9, 0.0, 2022-05-10 22:35:39.895
140.0, 0.0, 0.0, 0.0, 0.0, -13359.771771403763, 1040.3619456722672, 0.0, 0.0, -0.33, -0.93, 0.156, 192.0, 0.0, 0.0, 0.0, 0.0, 0.0, 0.0, 0.0, 0.0, 0.0, 1.6522401398958116E9, 0.0, 2022-05-10 22:35:39.895
141.0, 0.0, 0.0, 0.0, 0.0, -13373.138114588037, 1028.5825763443204, 0.0, 0.0, -0.33, -0.93, 0.156, 192.0, 0.0, 0.0, 0.0, 0.0, 0.0, 0.0, 0.0, 0.0, 0.0, 1.6522401398958175E9, 0.0, 2022-05-10 22:35:39.895
142.0, 0.0, 0.0, 0.0, 0.0, -13356.888396369028, 1042.4183061621554, 0.0, 0.0, -0.33, -0.93, 0.156, 192.0, 0.0, 0.0, 0.0, 0.0, 0.0, 0.0, 0.0, 0.0, 0.0, 1.6522401398958228E9, 0.0, 2022-05-10 22:35:39.895
143.0, 0.0, 0.0, 0.0, 0.0, -13357.447189980412, 1041.3230706838453, 0.0, 0.0, -0.33, -0.93, 0.156, 192.0, 0.0, 0.0, 0.0, 0.0, 0.0, 0.0, 0.0, 0.0, 0.0, 1.6522401398958285E9, 0.0, 2022-05-10 22:35:39.895
144.0, 0.0, 0.0, 0.0, 0.0, -13341.845672350606, 1056.0975737688034, 0.0, 0.0, -0.33, -0.93, 0.156, 192.0, 0.0, 0.0, 0.0, 0.0, 0.0, 0.0, 0.0, 0.0, 0.0, 1.6522401398958335E9, 0.0, 2022-05-10 22:35:39.895
145.0, 0.0, 0.0, 0.0, 0.0, -13310.30736092417, 1086.7194636725742, 0.0, 0.0, -0.33, -0.93, 0.156, 192.0, 0.0, 0.0, 0.0, 0.0, 0.0, 0.0, 0.0, 0.0, 0.0, 1.6522401398958397E9, 0.0, 2022-05-10 22:35:39.895
146.0, 0.0, 0.0, 0.0, 0.0, -13300.606703830565, 1095.5260509879652, 0.0, 0.0, -0.332, -0.93, 0.156, 192.0, 245.0, 160.0, 226.0, 240.0, 4.0, 224.0, 0.0, 0.0, 0.0, 1.6522401398958454E9, 0.0, 2022-05-10 22:35:39.895
147.0, 0.0, 0.0, 0.0, 0.0, -13295.756375283763, 1101.8292429243616, 0.0, 0.0, -0.332, -0.93, 0.156, 192.0, 0.0, 0.0, 0.0, 0.0, 0.0, 0.0, 0.0, 0.0, 0.0, 1.6522401398958528E9, 0.0, 2022-05-10 22:35:39.895
148.0, 0.0, 0.0, 0.0, 0.0, -13318.555154628177, 1079.9692368470714, 0.0, 0.0, -0.332, -0.93, 0.156, 192.0, 0.0, 0.0, 0.0, 0.0, 0.0, 0.0, 0.0, 0.0, 0.0, 1.6522401398958583E9, 0.0, 2022-05-10 22:35:39.895
149.0, 0.0, 0.0, 0.0, 0.0, -13344.907861340984, 1052.3648324447672, 0.0, 0.0, -0.332, -0.93, 0.156, 192.0, 0.0, 0.0, 0.0, 0.0, 0.0, 0.0, 0.0, 0.0, 0.0, 1.6522401398958652E9, 0.0, 2022-05-10 22:35:39.895
150.0, 0.0, 0.0, 0.0, 0.0, -13349.378210232046, 1051.9401493001162, 0.0, 0.0, -0.332, -0.93, 0.156, 192.0, 0.0, 0.0, 0.0, 0.0, 0.0, 0.0, 0.0, 0.0, 0.0, 1.6522401398958712E9, 0.0, 2022-05-10 22:35:39.895
151.0, 0.0, 0.0, 0.0, 0.0, -13371.059402353694, 1032.5835386018205, 0.0, 0.0, -0.332, -0.93, 0.156, 192.0, 0.0, 0.0, 0.0, 0.0, 0.0, 0.0, 0.0, 0.0, 0.0, 1.6522401398958771E9, 0.0, 2022-05-10 22:35:39.895
152.0, 0.0, 0.0, 0.0, 0.0, -13353.513282956277, 1046.4416201641106, 0.0, 0.0, -0.332, -0.93, 0.156, 192.0, 0.0, 0.0, 0.0, 0.0, 0.0, 0.0, 0.0, 0.0, 0.0, 1.652240139895882E9, 0.0, 2022-05-10 22:35:39.895
153.0, 0.0, 0.0, 0.0, 0.0, -13337.397675204002, 1057.6398441362196, 0.0, 0.0, -0.332, -0.93, 0.156, 192.0, 0.0, 0.0, 0.0, 0.0, 0.0, 0.0, 0.0, 0.0, 0.0, 1.6522401398958876E9, 0.0, 2022-05-10 22:35:39.895
154.0, 0.0, 0.0, 0.0, 0.0, -13322.06437850766, 1079.9021816137054, 0.0, 0.0, -0.332, -0.93, 0.156, 192.0, 0.0, 0.0, 0.0, 0.0, 0.0, 0.0, 0.0, 0.0, 0.0, 1.6522401398958929E9, 0.0, 2022-05-10 22:35:39.895
155.0, 0.0, 0.0, 0.0, 0.0, -13313.68247433692, 1091.9721236195712, 0.0, 0.0, -0.332, -0.93, 0.156, 192.0, 0.0, 0.0, 0.0, 0.0, 0.0, 0.0, 0.0, 0.0, 0.0, 1.6522401398958993E9, 0.0, 2022-05-10 22:35:39.895
156.0, 0.0, 0.0, 0.0, 0.0, -13340.012829305271, 1061.1267162712475, 0.0, 0.0, -0.334, -0.928, 0.154, 192.0, 245.0, 144.0, 227.0, 0.0, 4.0, 208.0, 0.0, 0.0, 0.0, 1.6522401398959043E9, 0.0, 2022-05-10 22:35:39.895
157.0, 0.0, 0.0, 0.0, 0.0, -13342.963259573373, 1055.695242368608, 0.0, 0.0, -0.334, -0.928, 0.154, 192.0, 0.0, 0.0, 0.0, 0.0, 0.0, 0.0, 0.0, 0.0, 0.0, 1.6522401398959093E9, 0.0, 2022-05-10 22:35:39.895
158.0, 0.0, 0.0, 0.0, 0.0, -13345.01962006326, 1047.0898207533146, 0.0, 0.0, -0.334, -0.928, 0.154, 192.0, 0.0, 0.0, 0.0, 0.0, 0.0, 0.0, 0.0, 0.0, 0.0, 1.6522401398959148E9, 0.0, 2022-05-10 22:35:39.895
159.0, 0.0, 0.0, 0.0, 0.0, -13380.402431536011, 1010.0529801908708, 0.0, 0.0, -0.334, -0.928, 0.154, 192.0, 0.0, 0.0, 0.0, 0.0, 0.0, 0.0, 0.0, 0.0, 0.0, 1.6522401398959208E9, 0.0, 2022-05-10 22:35:39.895
160.0, 0.0, 0.0, 0.0, 0.0, -13372.847541910118, 1015.7079715380636, 0.0, 0.0, -0.334, -0.928, 0.154, 192.0, 0.0, 0.0, 0.0, 0.0, 0.0, 0.0, 0.0, 0.0, 0.0, 1.652240139895927E9, 0.0, 2022-05-10 22:35:39.895
161.0, 0.0, 0.0, 0.0, 0.0, -13344.751399129796, 1048.050945764893, 0.0, 0.0, -0.334, -0.928, 0.154, 192.0, 0.0, 0.0, 0.0, 0.0, 0.0, 0.0, 0.0, 0.0, 0.0, 1.6522401398959334E9, 0.0, 2022-05-10 22:35:39.895
162.0, 0.0, 0.0, 0.0, 0.0, -13346.316021241668, 1048.5873876318203, 0.0, 0.0, -0.334, -0.928, 0.154, 192.0, 0.0, 0.0, 0.0, 0.0, 0.0, 0.0, 0.0, 0.0, 0.0, 1.652240139895944E9, 0.0, 2022-05-10 22:35:39.895
163.0, 0.0, 0.0, 0.0, 0.0, -13331.697980367897, 1064.7476988730073, 0.0, 0.0, -0.334, -0.928, 0.154, 192.0, 0.0, 0.0, 0.0, 0.0, 0.0, 0.0, 0.0, 0.0, 0.0, 1.6522401398959503E9, 0.0, 2022-05-10 22:35:39.895
164.0, 0.0, 0.0, 0.0, 0.0, -13333.597878646598, 1060.5232191709542, 0.0, 0.0, -0.334, -0.928, 0.154, 192.0, 0.0, 0.0, 0.0, 0.0, 0.0, 0.0, 0.0, 0.0, 0.0, 1.6522401398959563E9, 0.0, 2022-05-10 22:35:39.895
165.0, 0.0, 0.0, 0.0, 0.0, -13354.11678005657, 1040.3842974167226, 0.0, 0.0, -0.334, -0.928, 0.154, 192.0, 0.0, 0.0, 0.0, 0.0, 0.0, 0.0, 0.0, 0.0, 0.0, 1.6522401398959632E9, 0.0, 2022-05-10 22:35:39.895
166.0, 0.0, 0.0, 0.0, 0.0, -13363.593919705621, 1031.2647856789572, 0.0, 0.0, -0.336, -0.93, 0.154, 192.0, 245.0, 128.0, 226.0, 240.0, 4.0, 208.0, 0.0, 0.0, 0.0, 1.6522401398959713E9, 0.0, 2022-05-10 22:35:39.895
167.0, 0.0, 0.0, 0.0, 0.0, -13373.138114588037, 1020.7818175294183, 0.0, 0.0, -0.336, -0.93, 0.154, 192.0, 0.0, 0.0, 0.0, 0.0, 0.0, 0.0, 0.0, 0.0, 0.0, 1.6522401398959832E9, 0.0, 2022-05-10 22:35:39.895
168.0, 0.0, 0.0, 0.0, 0.0, -13370.4559052534, 1024.469855364544, 0.0, 0.0, -0.336, -0.93, 0.154, 192.0, 0.0, 0.0, 0.0, 0.0, 0.0, 0.0, 0.0, 0.0, 0.0, 1.6522401403608792E9, 0.0, 2022-05-10 22:35:40.360
169.0, 0.0, 0.0, 0.0, 0.0, -13359.235329536836, 1036.9197770261499, 0.0, 0.0, -0.336, -0.93, 0.154, 192.0, 0.0, 0.0, 0.0, 0.0, 0.0, 0.0, 0.0, 0.0, 0.0, 1.6522401403609183E9, 0.0, 2022-05-10 22:35:40.360
170.0, 0.0, 0.0, 0.0, 0.0, -13375.149771589015, 1016.9149657386502, 0.0, 0.0, -0.336, -0.93, 0.154, 192.0, 0.0, 0.0, 0.0, 0.0, 0.0, 0.0, 0.0, 0.0, 0.0, 1.6522401403609512E9, 0.0, 2022-05-10 22:35:40.360
171.0, 0.0, 0.0, 0.0, 0.0, -13381.229446080857, 1010.9470499690831, 0.0, 0.0, -0.336, -0.93, 0.154, 192.0, 0.0, 0.0, 0.0, 0.0, 0.0, 0.0, 0.0, 0.0, 0.0, 1.652240140360974E9, 0.0, 2022-05-10 22:35:40.360
172.0, 0.0, 0.0, 0.0, 0.0, -13375.619158222577, 1018.7031052950747, 0.0, 0.0, -0.336, -0.93, 0.154, 192.0, 0.0, 0.0, 0.0, 0.0, 0.0, 0.0, 0.0, 0.0, 0.0, 1.652240140360994E9, 0.0, 2022-05-10 22:35:40.360
173.0, 0.0, 0.0, 0.0, 0.0, -13393.701719486919, 999.4806050635107, 0.0, 0.0, -0.336, -0.93, 0.154, 192.0, 0.0, 0.0, 0.0, 0.0, 0.0, 0.0, 0.0, 0.0, 0.0, 1.6522401403610032E9, 0.0, 2022-05-10 22:35:40.361
174.0, 0.0, 0.0, 0.0, 0.0, -13377.675518712464, 1019.1724919286362, 0.0, 0.0, -0.336, -0.93, 0.154, 192.0, 0.0, 0.0, 0.0, 0.0, 0.0, 0.0, 0.0, 0.0, 0.0, 1.6522401403610103E9, 0.0, 2022-05-10 22:35:40.361
175.0, 0.0, 0.0, 0.0, 0.0, -13383.375213548568, 1011.6846575361083, 0.0, 0.0, -0.336, -0.93, 0.154, 192.0, 0.0, 0.0, 0.0, 0.0, 0.0, 0.0, 0.0, 0.0, 0.0, 1.6522401403610349E9, 0.0, 2022-05-10 22:35:40.361
176.0, 0.0, 0.0, 0.0, 0.0, -13378.54723674622, 1017.8984424946836, 0.0, 0.0, -0.334, -0.932, 0.156, 192.0, 245.0, 144.0, 226.0, 224.0, 4.0, 224.0, 0.0, 0.0, 0.0, 1.6522401403610673E9, 0.0, 2022-05-10 22:35:40.361
177.0, 0.0, 0.0, 0.0, 0.0, -13362.342222016123, 1035.8021898033846, 0.0, 0.0, -0.334, -0.932, 0.156, 192.0, 0.0, 0.0, 0.0, 0.0, 0.0, 0.0, 0.0, 0.0, 0.0, 1.6522401403610747E9, 0.0, 2022-05-10 22:35:40.361
178.0, 0.0, 0.0, 0.0, 0.0, -13369.539483730732, 1030.1024949672812, 0.0, 0.0, -0.334, -0.932, 0.156, 192.0, 0.0, 0.0, 0.0, 0.0, 0.0, 0.0, 0.0, 0.0, 0.0, 1.652240140361084E9, 0.0, 2022-05-10 22:35:40.361
179.0, 0.0, 0.0, 0.0, 0.0, -13378.435478023945, 1018.948974484083, 0.0, 0.0, -0.334, -0.932, 0.156, 192.0, 0.0, 0.0, 0.0, 0.0, 0.0, 0.0, 0.0, 0.0, 0.0, 1.6522401403610919E9, 0.0, 2022-05-10 22:35:40.361
180.0, 0.0, 0.0, 0.0, 0.0, -13373.182818076948, 1020.3347826403121, 0.0, 0.0, -0.334, -0.932, 0.156, 192.0, 0.0, 0.0, 0.0, 0.0, 0.0, 0.0, 0.0, 0.0, 0.0, 1.6522401403610992E9, 0.0, 2022-05-10 22:35:40.361
181.0, 0.0, 0.0, 0.0, 0.0, -13391.868876441584, 1004.0403609323932, 0.0, 0.0, -0.334, -0.932, 0.156, 192.0, 0.0, 0.0, 0.0, 0.0, 0.0, 0.0, 0.0, 0.0, 0.0, 1.6522401403611076E9, 0.0, 2022-05-10 22:35:40.361
182.0, 0.0, 0.0, 0.0, 0.0, -13450.117522492113, 949.3009387613463, 0.0, 0.0, -0.334, -0.932, 0.156, 192.0, 0.0, 0.0, 0.0, 0.0, 0.0, 0.0, 0.0, 0.0, 0.0, 1.6522401403611176E9, 0.0, 2022-05-10 22:35:40.361
183.0, 0.0, 0.0, 0.0, 0.0, -13441.355638665635, 958.8004301548517, 0.0, 0.0, -0.334, -0.932, 0.156, 192.0, 0.0, 0.0, 0.0, 0.0, 0.0, 0.0, 0.0, 0.0, 0.0, 1.6522401403611293E9, 0.0, 2022-05-10 22:35:40.361
184.0, 0.0, 0.0, 0.0, 0.0, -13418.288638387758, 981.7780234549074, 0.0, 0.0, -0.334, -0.932, 0.156, 192.0, 0.0, 0.0, 0.0, 0.0, 0.0, 0.0, 0.0, 0.0, 0.0, 1.6522401403611388E9, 0.0, 2022-05-10 22:35:40.361
185.0, 0.0, 0.0, 0.0, 0.0, -13386.593864750132, 1013.9421837260943, 0.0, 0.0, -0.334, -0.932, 0.156, 192.0, 0.0, 0.0, 0.0, 0.0, 0.0, 0.0, 0.0, 0.0, 0.0, 1.6522401403611495E9, 0.0, 2022-05-10 22:35:40.361
186.0, 0.0, 0.0, 0.0, 0.0, -13389.74546071833, 1006.0743696778262, 0.0, 0.0, -0.33, -0.928, 0.158, 192.0, 245.0, 176.0, 227.0, 0.0, 4.0, 240.0, 0.0, 0.0, 0.0, 1.6522401403611581E9, 0.0, 2022-05-10 22:35:40.361
187.0, 0.0, 0.0, 0.0, 0.0, -13403.715301002896, 993.4903375494883, 0.0, 0.0, -0.33, -0.928, 0.158, 192.0, 0.0, 0.0, 0.0, 0.0, 0.0, 0.0, 0.0, 0.0, 0.0, 1.6522401403611665E9, 0.0, 2022-05-10 22:35:40.361
188.0, 0.0, 0.0, 0.0, 0.0, -13436.527661863287, 961.214418556025, 0.0, 0.0, -0.33, -0.928, 0.158, 192.0, 0.0, 0.0, 0.0, 0.0, 0.0, 0.0, 0.0, 0.0, 0.0, 1.652240140361174E9, 0.0, 2022-05-10 22:35:40.361
189.0, 0.0, 0.0, 0.0, 0.0, -13410.823155739685, 989.0199886584269, 0.0, 0.0, -0.33, -0.928, 0.158, 192.0, 0.0, 0.0, 0.0, 0.0, 0.0, 0.0, 0.0, 0.0, 0.0, 1.6522401403611817E9, 0.0, 2022-05-10 22:35:40.361
190.0, 0.0, 0.0, 0.0, 0.0, -13384.872780427073, 1013.8304250038177, 0.0, 0.0, -0.33, -0.928, 0.158, 192.0, 0.0, 0.0, 0.0, 0.0, 0.0, 0.0, 0.0, 0.0, 0.0, 1.6522401403611915E9, 0.0, 2022-05-10 22:35:40.361
191.0, 0.0, 0.0, 0.0, 0.0, -13373.965129132883, 1024.9615937425606, 0.0, 0.0, -0.33, -0.928, 0.158, 192.0, 0.0, 0.0, 0.0, 0.0, 0.0, 0.0, 0.0, 0.0, 0.0, 1.6522401403611999E9, 0.0, 2022-05-10 22:35:40.361
192.0, 0.0, 0.0, 0.0, 0.0, -13382.347033303624, 1015.8644337492507, 0.0, 0.0, -0.33, -0.928, 0.158, 192.0, 0.0, 0.0, 0.0, 0.0, 0.0, 0.0, 0.0, 0.0, 0.0, 1.6522401403612075E9, 0.0, 2022-05-10 22:35:40.361
193.0, 0.0, 0.0, 0.0, 0.0, -13369.181855819448, 1028.4931693664992, 0.0, 0.0, -0.33, -0.928, 0.158, 192.0, 0.0, 0.0, 0.0, 0.0, 0.0, 0.0, 0.0, 0.0, 0.0, 1.6522401403612158E9, 0.0, 2022-05-10 22:35:40.361
194.0, 0.0, 0.0, 0.0, 0.0, -13361.582262704644, 1038.3279369268344, 0.0, 0.0, -0.33, -0.928, 0.158, 192.0, 0.0, 0.0, 0.0, 0.0, 0.0, 0.0, 0.0, 0.0, 0.0, 1.6522401403612227E9, 0.0, 2022-05-10 22:35:40.361
195.0, 0.0, 0.0, 0.0, 0.0, -13381.341204803135, 1021.3182593963456, 0.0, 0.0, -0.33, -0.928, 0.158, 192.0, 0.0, 0.0, 0.0, 0.0, 0.0, 0.0, 0.0, 0.0, 0.0, 1.6522401403612313E9, 0.0, 2022-05-10 22:35:40.361
196.0, 0.0, 0.0, 0.0, 0.0, -13404.98935043685, 996.306657350857, 0.0, 0.0, -0.332, -0.928, 0.16, 192.0, 245.0, 160.0, 227.0, 0.0, 5.0, 0.0, 0.0, 0.0, 0.0, 1.6522401403612378E9, 0.0, 2022-05-10 22:35:40.361
197.0, 0.0, 0.0, 0.0, 0.0, -13405.145812648036, 998.0053899294603, 0.0, 0.0, -0.332, -0.928, 0.16, 192.0, 0.0, 0.0, 0.0, 0.0, 0.0, 0.0, 0.0, 0.0, 0.0, 1.6522401403612456E9, 0.0, 2022-05-10 22:35:40.361
198.0, 0.0, 0.0, 0.0, 0.0, -13393.813478209197, 1013.2269279035245, 0.0, 0.0, -0.332, -0.928, 0.16, 192.0, 0.0, 0.0, 0.0, 0.0, 0.0, 0.0, 0.0, 0.0, 0.0, 1.6522401403612533E9, 0.0, 2022-05-10 22:35:40.361
199.0, 0.0, 0.0, 0.0, 0.0, -13365.225597050858, 1042.753582328985, 0.0, 0.0, -0.332, -0.928, 0.16, 192.0, 0.0, 0.0, 0.0, 0.0, 0.0, 0.0, 0.0, 0.0, 0.0, 1.6522401403612645E9, 0.0, 2022-05-10 22:35:40.361
200.0, 0.0, 0.0, 0.0, 0.0, -13351.345163744112, 1055.337614457323, 0.0, 0.0, -0.332, -0.928, 0.16, 192.0, 0.0, 0.0, 0.0, 0.0, 0.0, 0.0, 0.0, 0.0, 0.0, 1.6522401403612742E9, 0.0, 2022-05-10 22:35:40.361
201.0, 0.0, 0.0, 0.0, 0.0, -13358.11774231407, 1047.045117264404, 0.0, 0.0, -0.332, -0.928, 0.16, 192.0, 0.0, 0.0, 0.0, 0.0, 0.0, 0.0, 0.0, 0.0, 0.0, 1.6522401403612833E9, 0.0, 2022-05-10 22:35:40.361
202.0, 0.0, 0.0, 0.0, 0.0, -13387.08560312815, 1016.5349860829099, 0.0, 0.0, -0.332, -0.928, 0.16, 192.0, 0.0, 0.0, 0.0, 0.0, 0.0, 0.0, 0.0, 0.0, 0.0, 1.6522401403612921E9, 0.0, 2022-05-10 22:35:40.361
203.0, 0.0, 0.0, 0.0, 0.0, -13412.410129596012, 992.886840449195, 0.0, 0.0, -0.332, -0.928, 0.16, 192.0, 0.0, 0.0, 0.0, 0.0, 0.0, 0.0, 0.0, 0.0, 0.0, 1.6522401403613007E9, 0.0, 2022-05-10 22:35:40.361
204.0, 0.0, 0.0, 0.0, 0.0, -13384.895132171529, 1024.7157245535523, 0.0, 0.0, -0.332, -0.928, 0.16, 192.0, 0.0, 0.0, 0.0, 0.0, 0.0, 0.0, 0.0, 0.0, 0.0, 1.6522401403613098E9, 0.0, 2022-05-10 22:35:40.361
205.0, 0.0, 0.0, 0.0, 0.0, -13376.446172767422, 1034.1258089692365, 0.0, 0.0, -0.332, -0.928, 0.16, 192.0, 0.0, 0.0, 0.0, 0.0, 0.0, 0.0, 0.0, 0.0, 0.0, 1.6522401403613179E9, 0.0, 2022-05-10 22:35:40.361
206.0, 0.0, 0.0, 0.0, 0.0, -13401.122498646082, 1006.3872941002005, 0.0, 0.0, -0.33, -0.926, 0.158, 192.0, 245.0, 176.0, 227.0, 16.0, 4.0, 240.0, 0.0, 0.0, 0.0, 1.6522401403613267E9, 0.0, 2022-05-10 22:35:40.361
